PE UV       SUBTECH     SPECTRUM    ASCII       PEDS        4.00        
   -1
Sample6214.Sample.asc
24/04/10
23:47:19.00
24/04/10
23:47:19.00
Analyst

300,000000
1
Lambda 850
850N4111301
PerkinElmer UV WinLab 6.4.0.971 / 1.61.00 Lambda 800

0
0
2
0
0
VIS
1
1
1
RBeamAtt,SBeamAtt,150mm sphere / downward view
0
0
0
0
Fix
 
0
0,2
0
30
0
 
 
 
0
 
0
150
0
Front
100
 
S:100 R:100
 
0
0
0
 
0
 
 
 
0
 
 
0
0
0
0
0
 
 
 
 
0
0


0
0
#HDR
-1
-1
#GR
nm
EGY
1.0
0.0
900,000000
-1,000000
601
8
0,563600
-0,007100
#DATA
900,000000	-0,003500
899,000000	-0,002300
898,000000	-0,002200
897,000000	-0,007100
896,000000	-0,000500
895,000000	-0,000700
894,000000	-0,002700
893,000000	-0,002400
892,000000	-0,001200
891,000000	-0,005700
890,000000	-0,001800
889,000000	-0,001400
888,000000	-0,001700
887,000000	-0,001600
886,000000	-0,001800
885,000000	-0,004300
884,000000	-0,001700
883,000000	-0,003000
882,000000	-0,001500
881,000000	-0,001600
880,000000	-0,002000
879,000000	-0,004400
878,000000	-0,000300
877,000000	-0,001100
876,000000	-0,000400
875,000000	0,000700
874,000000	-0,001300
873,000000	-0,006000
872,000000	-0,001900
871,000000	0,000600
870,000000	-0,000500
869,000000	-0,002700
868,000000	-0,000900
867,000000	-0,003000
866,000000	-0,000200
865,000000	0,000700
864,000000	-0,000400
863,000000	-0,000100
862,000000	0,001800
861,000000	-0,003100
860,000000	0,000300
859,000000	0,000900
858,000000	0,000300
857,000000	-0,000600
856,000000	0,000800
855,000000	0,003500
854,000000	0,002800
853,000000	0,005100
852,000000	0,004700
851,000000	0,002400
850,000000	0,005100
849,000000	0,008500
848,000000	0,007700
847,000000	0,007900
846,000000	0,010100
845,000000	0,009600
844,000000	0,010300
843,000000	0,012800
842,000000	0,015000
841,000000	0,016500
840,000000	0,017000
839,000000	0,018300
838,000000	0,019700
837,000000	0,021900
836,000000	0,025000
835,000000	0,027100
834,000000	0,026200
833,000000	0,028500
832,000000	0,031100
831,000000	0,032900
830,000000	0,034100
829,000000	0,036600
828,000000	0,037900
827,000000	0,037600
826,000000	0,040100
825,000000	0,042600
824,000000	0,043600
823,000000	0,044700
822,000000	0,046800
821,000000	0,045800
820,000000	0,048700
819,000000	0,051100
818,000000	0,052400
817,000000	0,051700
816,000000	0,053200
815,000000	0,053300
814,000000	0,054400
813,000000	0,056300
812,000000	0,057900
811,000000	0,058900
810,000000	0,059500
809,000000	0,065200
808,000000	0,065600
807,000000	0,066800
806,000000	0,068200
805,000000	0,068400
804,000000	0,071200
803,000000	0,072200
802,000000	0,071000
801,000000	0,070400
800,000000	0,072600
799,000000	0,075000
798,000000	0,076100
797,000000	0,077100
796,000000	0,076800
795,000000	0,076300
794,000000	0,078900
793,000000	0,080900
792,000000	0,081100
791,000000	0,081800
790,000000	0,082600
789,000000	0,081400
788,000000	0,082600
787,000000	0,086200
786,000000	0,086400
785,000000	0,087000
784,000000	0,087600
783,000000	0,088000
782,000000	0,089100
781,000000	0,091000
780,000000	0,092500
779,000000	0,092800
778,000000	0,093000
777,000000	0,094200
776,000000	0,096100
775,000000	0,096800
774,000000	0,099000
773,000000	0,100300
772,000000	0,099200
771,000000	0,099300
770,000000	0,101600
769,000000	0,103500
768,000000	0,104800
767,000000	0,105800
766,000000	0,105700
765,000000	0,105700
764,000000	0,107900
763,000000	0,110700
762,000000	0,111100
761,000000	0,111500
760,000000	0,113500
759,000000	0,114600
758,000000	0,115500
757,000000	0,118700
756,000000	0,121400
755,000000	0,120700
754,000000	0,120500
753,000000	0,122200
752,000000	0,124500
751,000000	0,125900
750,000000	0,127100
749,000000	0,128700
748,000000	0,128700
747,000000	0,130500
746,000000	0,133600
745,000000	0,135000
744,000000	0,136400
743,000000	0,138200
742,000000	0,138300
741,000000	0,139100
740,000000	0,143100
739,000000	0,145700
738,000000	0,146000
737,000000	0,146700
736,000000	0,148200
735,000000	0,149800
734,000000	0,152600
733,000000	0,155600
732,000000	0,157100
731,000000	0,157700
730,000000	0,159200
729,000000	0,161200
728,000000	0,164300
727,000000	0,167500
726,000000	0,169500
725,000000	0,170900
724,000000	0,171700
723,000000	0,174200
722,000000	0,178400
721,000000	0,180200
720,000000	0,181800
719,000000	0,185000
718,000000	0,185800
717,000000	0,187400
716,000000	0,191500
715,000000	0,194400
714,000000	0,196600
713,000000	0,200000
712,000000	0,200600
711,000000	0,201200
710,000000	0,204400
709,000000	0,207700
708,000000	0,209400
707,000000	0,211400
706,000000	0,213400
705,000000	0,215400
704,000000	0,216900
703,000000	0,219400
702,000000	0,222000
701,000000	0,223100
700,000000	0,224400
699,000000	0,227200
698,000000	0,230500
697,000000	0,233500
696,000000	0,235500
695,000000	0,236200
694,000000	0,236600
693,000000	0,240000
692,000000	0,243700
691,000000	0,245700
690,000000	0,246700
689,000000	0,258700
688,000000	0,269100
687,000000	0,271400
686,000000	0,273900
685,000000	0,280600
684,000000	0,285500
683,000000	0,288000
682,000000	0,292100
681,000000	0,295600
680,000000	0,299100
679,000000	0,303000
678,000000	0,306800
677,000000	0,311500
676,000000	0,314300
675,000000	0,314900
674,000000	0,318500
673,000000	0,323100
672,000000	0,326500
671,000000	0,331400
670,000000	0,334800
669,000000	0,336000
668,000000	0,340700
667,000000	0,345300
666,000000	0,348300
665,000000	0,350700
664,000000	0,355200
663,000000	0,357200
662,000000	0,359300
661,000000	0,365300
660,000000	0,370100
659,000000	0,372300
658,000000	0,375700
657,000000	0,378700
656,000000	0,381500
655,000000	0,386300
654,000000	0,390500
653,000000	0,393500
652,000000	0,396900
651,000000	0,398800
650,000000	0,402600
649,000000	0,406600
648,000000	0,411100
647,000000	0,415500
646,000000	0,419000
645,000000	0,419000
644,000000	0,423500
643,000000	0,429700
642,000000	0,431900
641,000000	0,435700
640,000000	0,439600
639,000000	0,439400
638,000000	0,443200
637,000000	0,449400
636,000000	0,453000
635,000000	0,454400
634,000000	0,459300
633,000000	0,461700
632,000000	0,464500
631,000000	0,467600
630,000000	0,472500
629,000000	0,475900
628,000000	0,478300
627,000000	0,479800
626,000000	0,483000
625,000000	0,488000
624,000000	0,491200
623,000000	0,494800
622,000000	0,496500
621,000000	0,496600
620,000000	0,499800
619,000000	0,506100
618,000000	0,508600
617,000000	0,511700
616,000000	0,515200
615,000000	0,513000
614,000000	0,517000
613,000000	0,524400
612,000000	0,525800
611,000000	0,526700
610,000000	0,528600
609,000000	0,528700
608,000000	0,531700
607,000000	0,536700
606,000000	0,538200
605,000000	0,540000
604,000000	0,540000
603,000000	0,542800
602,000000	0,544200
601,000000	0,546200
600,000000	0,548900
599,000000	0,551700
598,000000	0,551900
597,000000	0,550400
596,000000	0,552900
595,000000	0,556000
594,000000	0,557100
593,000000	0,559800
592,000000	0,559200
591,000000	0,560400
590,000000	0,560400
589,000000	0,562800
588,000000	0,562500
587,000000	0,560600
586,000000	0,562400
585,000000	0,560600
584,000000	0,559400
583,000000	0,563600
582,000000	0,562900
581,000000	0,562300
580,000000	0,563400
579,000000	0,560800
578,000000	0,559700
577,000000	0,558900
576,000000	0,559300
575,000000	0,558500
574,000000	0,555500
573,000000	0,549600
572,000000	0,548000
571,000000	0,547500
570,000000	0,542300
569,000000	0,540800
568,000000	0,534800
567,000000	0,526600
566,000000	0,524200
565,000000	0,519700
564,000000	0,511900
563,000000	0,504300
562,000000	0,493600
561,000000	0,464000
560,000000	0,466200
559,000000	0,463200
558,000000	0,467000
557,000000	0,472600
556,000000	0,471300
555,000000	0,472400
554,000000	0,473500
553,000000	0,470500
552,000000	0,469200
551,000000	0,473700
550,000000	0,474300
549,000000	0,472700
548,000000	0,470900
547,000000	0,467800
546,000000	0,466900
545,000000	0,467800
544,000000	0,467700
543,000000	0,465100
542,000000	0,461300
541,000000	0,457300
540,000000	0,456600
539,000000	0,455100
538,000000	0,452800
537,000000	0,450300
536,000000	0,445100
535,000000	0,440600
534,000000	0,437900
533,000000	0,435000
532,000000	0,430700
531,000000	0,426300
530,000000	0,422900
529,000000	0,417200
528,000000	0,412500
527,000000	0,410000
526,000000	0,404100
525,000000	0,398200
524,000000	0,395500
523,000000	0,389100
522,000000	0,383600
521,000000	0,382500
520,000000	0,378300
519,000000	0,370800
518,000000	0,364500
517,000000	0,359300
516,000000	0,355800
515,000000	0,352000
514,000000	0,346900
513,000000	0,343700
512,000000	0,339600
511,000000	0,332000
510,000000	0,329200
509,000000	0,327500
508,000000	0,323100
507,000000	0,321600
506,000000	0,317900
505,000000	0,311700
504,000000	0,312900
503,000000	0,311600
502,000000	0,310200
501,000000	0,309100
500,000000	0,307100
499,000000	0,307400
498,000000	0,306200
497,000000	0,309700
496,000000	0,313000
495,000000	0,314300
494,000000	0,316000
493,000000	0,320200
492,000000	0,326100
491,000000	0,332500
490,000000	0,340000
489,000000	0,347000
488,000000	0,354200
487,000000	0,362300
486,000000	0,373700
485,000000	0,385200
484,000000	0,395400
483,000000	0,408200
482,000000	0,414900
481,000000	0,416400
480,000000	0,416900
479,000000	0,415300
478,000000	0,411900
477,000000	0,409000
476,000000	0,405600
475,000000	0,401100
474,000000	0,399800
473,000000	0,398500
472,000000	0,395400
471,000000	0,390600
470,000000	0,386700
469,000000	0,383400
468,000000	0,379100
467,000000	0,376700
466,000000	0,373300
465,000000	0,367100
464,000000	0,361700
463,000000	0,357400
462,000000	0,353900
461,000000	0,350600
460,000000	0,346200
459,000000	0,342400
458,000000	0,336800
457,000000	0,331200
456,000000	0,330000
455,000000	0,327900
454,000000	0,323300
453,000000	0,321900
452,000000	0,317900
451,000000	0,312200
450,000000	0,310800
449,000000	0,309300
448,000000	0,307600
447,000000	0,305000
446,000000	0,301100
445,000000	0,297700
444,000000	0,298800
443,000000	0,302200
442,000000	0,301900
441,000000	0,299300
440,000000	0,298000
439,000000	0,296500
438,000000	0,294400
437,000000	0,294200
436,000000	0,294700
435,000000	0,292500
434,000000	0,287400
433,000000	0,284700
432,000000	0,285700
431,000000	0,285100
430,000000	0,281900
429,000000	0,278500
428,000000	0,274800
427,000000	0,270700
426,000000	0,269500
425,000000	0,269300
424,000000	0,266600
423,000000	0,264600
422,000000	0,261200
421,000000	0,257100
420,000000	0,254800
419,000000	0,252300
418,000000	0,249300
417,000000	0,246200
416,000000	0,242700
415,000000	0,239100
414,000000	0,236500
413,000000	0,232600
412,000000	0,229300
411,000000	0,226000
410,000000	0,220600
409,000000	0,217100
408,000000	0,214800
407,000000	0,210900
406,000000	0,207200
405,000000	0,202900
404,000000	0,195700
403,000000	0,192000
402,000000	0,189700
401,000000	0,185200
400,000000	0,179700
399,000000	0,176700
398,000000	0,172900
397,000000	0,166500
396,000000	0,162800
395,000000	0,161500
394,000000	0,158400
393,000000	0,153200
392,000000	0,147700
391,000000	0,146000
390,000000	0,144000
389,000000	0,140800
388,000000	0,137500
387,000000	0,132900
386,000000	0,128300
385,000000	0,126900
384,000000	0,125600
383,000000	0,120400
382,000000	0,117400
381,000000	0,116700
380,000000	0,112300
379,000000	0,107800
378,000000	0,037900
377,000000	0,010400
376,000000	0,010800
375,000000	0,012000
374,000000	0,016000
373,000000	0,017300
372,000000	0,017600
371,000000	0,017300
370,000000	0,016900
369,000000	0,018300
368,000000	0,019000
367,000000	0,019000
366,000000	0,019400
365,000000	0,018800
364,000000	0,018100
363,000000	0,018400
362,000000	0,018200
361,000000	0,017800
360,000000	0,018200
359,000000	0,017200
358,000000	0,015100
357,000000	0,014600
356,000000	0,016800
355,000000	0,015300
354,000000	0,013100
353,000000	0,014000
352,000000	0,012900
351,000000	0,011100
350,000000	0,013800
349,000000	0,012800
348,000000	0,012400
347,000000	0,012800
346,000000	0,010900
345,000000	0,007400
344,000000	0,009600
343,000000	0,010300
342,000000	0,010400
341,000000	0,009000
340,000000	0,005900
339,000000	0,008900
338,000000	0,008100
337,000000	0,007400
336,000000	0,008200
335,000000	0,007100
334,000000	0,003700
333,000000	0,005000
332,000000	0,005100
331,000000	0,004100
330,000000	0,004900
329,000000	0,006000
328,000000	0,001900
327,000000	0,002900
326,000000	0,005200
325,000000	0,005800
324,000000	0,004600
323,000000	0,003800
322,000000	0,000300
321,000000	0,000100
320,000000	0,002400
319,000000	0,003900
318,000000	0,016100
317,000000	0,018400
316,000000	0,015000
315,000000	0,015200
314,000000	0,015300
313,000000	0,015300
312,000000	0,015000
311,000000	0,013800
310,000000	0,010700
309,000000	0,009500
308,000000	0,012000
307,000000	0,011300
306,000000	0,008800
305,000000	0,011000
304,000000	0,008000
303,000000	0,004000
302,000000	0,007200
301,000000	0,008900
300,000000	0,007300
