PE UV       SUBTECH     SPECTRUM    ASCII       PEDS        4.00        
   -1
Sample6219.Sample.asc
24/04/11
00:11:36.00
24/04/11
00:11:36.00
Analyst

300,000000
1
Lambda 850
850N4111301
PerkinElmer UV WinLab 6.4.0.971 / 1.61.00 Lambda 800

0
0
2
0
0
VIS
1
1
1
RBeamAtt,SBeamAtt,150mm sphere / downward view
0
0
0
0
Fix
 
0
0,2
0
30
0
 
 
 
0
 
0
150
0
Front
100
 
S:100 R:100
 
0
0
0
 
0
 
 
 
0
 
 
0
0
0
0
0
 
 
 
 
0
0


0
0
#HDR
-1
-1
#GR
nm
EGY
1.0
0.0
900,000000
-1,000000
601
8
0,417900
-0,006100
#DATA
900,000000	-0,001200
899,000000	-0,002600
898,000000	-0,005800
897,000000	-0,003900
896,000000	-0,006100
895,000000	-0,002900
894,000000	-0,002400
893,000000	-0,001000
892,000000	-0,004200
891,000000	-0,002800
890,000000	-0,003300
889,000000	-0,001100
888,000000	-0,002500
887,000000	-0,002100
886,000000	-0,002100
885,000000	-0,003200
884,000000	-0,004000
883,000000	-0,000300
882,000000	-0,001800
881,000000	-0,003000
880,000000	-0,002200
879,000000	-0,001900
878,000000	-0,003000
877,000000	-0,000800
876,000000	-0,001200
875,000000	-0,002000
874,000000	-0,003000
873,000000	-0,003400
872,000000	-0,003200
871,000000	-0,001000
870,000000	0,000500
869,000000	0,001300
868,000000	-0,003100
867,000000	-0,001700
866,000000	0,000200
865,000000	0,000400
864,000000	-0,002900
863,000000	-0,000300
862,000000	0,000800
861,000000	-0,001400
860,000000	-0,002800
859,000000	-0,000500
858,000000	0,001700
857,000000	-0,000200
856,000000	0,001100
855,000000	0,003500
854,000000	0,003800
853,000000	0,004500
852,000000	0,002800
851,000000	0,002400
850,000000	0,003900
849,000000	0,004700
848,000000	0,006000
847,000000	0,008300
846,000000	0,008800
845,000000	0,008100
844,000000	0,009800
843,000000	0,010500
842,000000	0,011900
841,000000	0,014200
840,000000	0,016000
839,000000	0,015000
838,000000	0,015600
837,000000	0,019900
836,000000	0,020500
835,000000	0,020500
834,000000	0,024100
833,000000	0,024000
832,000000	0,024500
831,000000	0,027700
830,000000	0,029300
829,000000	0,031500
828,000000	0,031200
827,000000	0,033800
826,000000	0,034900
825,000000	0,035100
824,000000	0,038300
823,000000	0,040200
822,000000	0,039100
821,000000	0,039600
820,000000	0,042500
819,000000	0,042400
818,000000	0,044200
817,000000	0,045300
816,000000	0,044400
815,000000	0,045000
814,000000	0,046300
813,000000	0,046500
812,000000	0,048000
811,000000	0,048200
810,000000	0,050200
809,000000	0,055100
808,000000	0,056900
807,000000	0,055400
806,000000	0,056400
805,000000	0,059400
804,000000	0,059400
803,000000	0,059900
802,000000	0,060900
801,000000	0,060400
800,000000	0,061900
799,000000	0,063500
798,000000	0,063800
797,000000	0,063400
796,000000	0,064400
795,000000	0,066100
794,000000	0,067100
793,000000	0,066700
792,000000	0,066200
791,000000	0,068600
790,000000	0,068700
789,000000	0,069200
788,000000	0,070800
787,000000	0,071200
786,000000	0,072800
785,000000	0,074300
784,000000	0,073500
783,000000	0,072100
782,000000	0,073900
781,000000	0,076800
780,000000	0,077400
779,000000	0,078100
778,000000	0,079600
777,000000	0,078700
776,000000	0,078700
775,000000	0,080500
774,000000	0,081700
773,000000	0,083000
772,000000	0,083900
771,000000	0,083100
770,000000	0,084100
769,000000	0,086700
768,000000	0,088100
767,000000	0,088100
766,000000	0,087600
765,000000	0,088600
764,000000	0,090700
763,000000	0,091400
762,000000	0,092600
761,000000	0,094200
760,000000	0,094200
759,000000	0,094900
758,000000	0,096800
757,000000	0,098300
756,000000	0,099500
755,000000	0,100300
754,000000	0,101000
753,000000	0,101200
752,000000	0,102900
751,000000	0,104900
750,000000	0,105900
749,000000	0,106900
748,000000	0,108600
747,000000	0,109000
746,000000	0,109000
745,000000	0,111400
744,000000	0,113700
743,000000	0,113100
742,000000	0,113400
741,000000	0,115400
740,000000	0,117400
739,000000	0,119100
738,000000	0,121000
737,000000	0,121700
736,000000	0,120900
735,000000	0,122800
734,000000	0,127200
733,000000	0,128700
732,000000	0,129100
731,000000	0,130900
730,000000	0,132500
729,000000	0,133000
728,000000	0,135900
727,000000	0,139400
726,000000	0,140300
725,000000	0,140500
724,000000	0,142300
723,000000	0,143800
722,000000	0,145300
721,000000	0,148900
720,000000	0,151400
719,000000	0,149800
718,000000	0,151100
717,000000	0,154200
716,000000	0,156600
715,000000	0,159100
714,000000	0,161100
713,000000	0,159700
712,000000	0,159900
711,000000	0,161500
710,000000	0,164300
709,000000	0,166500
708,000000	0,166900
707,000000	0,166000
706,000000	0,166800
705,000000	0,166100
704,000000	0,168300
703,000000	0,169400
702,000000	0,168800
701,000000	0,166500
700,000000	0,165300
699,000000	0,163100
698,000000	0,163900
697,000000	0,164400
696,000000	0,162600
695,000000	0,156400
694,000000	0,152400
693,000000	0,149900
692,000000	0,148900
691,000000	0,143900
690,000000	0,139800
689,000000	0,142200
688,000000	0,137700
687,000000	0,133100
686,000000	0,131900
685,000000	0,132300
684,000000	0,129300
683,000000	0,129400
682,000000	0,127000
681,000000	0,129200
680,000000	0,129700
679,000000	0,132400
678,000000	0,137000
677,000000	0,136500
676,000000	0,137000
675,000000	0,138900
674,000000	0,140300
673,000000	0,145500
672,000000	0,150500
671,000000	0,151500
670,000000	0,151400
669,000000	0,156800
668,000000	0,160100
667,000000	0,167700
666,000000	0,174200
665,000000	0,178900
664,000000	0,180700
663,000000	0,187400
662,000000	0,194200
661,000000	0,202000
660,000000	0,206900
659,000000	0,213200
658,000000	0,214800
657,000000	0,218700
656,000000	0,223300
655,000000	0,229700
654,000000	0,231800
653,000000	0,234900
652,000000	0,236200
651,000000	0,238900
650,000000	0,241700
649,000000	0,248600
648,000000	0,254800
647,000000	0,260500
646,000000	0,261700
645,000000	0,267700
644,000000	0,272300
643,000000	0,280800
642,000000	0,284200
641,000000	0,290200
640,000000	0,291600
639,000000	0,294500
638,000000	0,300500
637,000000	0,304500
636,000000	0,306200
635,000000	0,309600
634,000000	0,309700
633,000000	0,312400
632,000000	0,311800
631,000000	0,319700
630,000000	0,320500
629,000000	0,321200
628,000000	0,325800
627,000000	0,323100
626,000000	0,327300
625,000000	0,332300
624,000000	0,333300
623,000000	0,336500
622,000000	0,335600
621,000000	0,341000
620,000000	0,341800
619,000000	0,345500
618,000000	0,350600
617,000000	0,351800
616,000000	0,352900
615,000000	0,355600
614,000000	0,358200
613,000000	0,362800
612,000000	0,366100
611,000000	0,368800
610,000000	0,370800
609,000000	0,372000
608,000000	0,374700
607,000000	0,380300
606,000000	0,380400
605,000000	0,383800
604,000000	0,387600
603,000000	0,386600
602,000000	0,387000
601,000000	0,393000
600,000000	0,394900
599,000000	0,395900
598,000000	0,398800
597,000000	0,395100
596,000000	0,398200
595,000000	0,400100
594,000000	0,403400
593,000000	0,403700
592,000000	0,403600
591,000000	0,406400
590,000000	0,409000
589,000000	0,406200
588,000000	0,409700
587,000000	0,411400
586,000000	0,412400
585,000000	0,408600
584,000000	0,413500
583,000000	0,415100
582,000000	0,413900
581,000000	0,415100
580,000000	0,417900
579,000000	0,411800
578,000000	0,415500
577,000000	0,416800
576,000000	0,417100
575,000000	0,415600
574,000000	0,417700
573,000000	0,414700
572,000000	0,414500
571,000000	0,411600
570,000000	0,414400
569,000000	0,410700
568,000000	0,407700
567,000000	0,404000
566,000000	0,402300
565,000000	0,396700
564,000000	0,393800
563,000000	0,386700
562,000000	0,380400
561,000000	0,357300
560,000000	0,359300
559,000000	0,359600
558,000000	0,364800
557,000000	0,362000
556,000000	0,364600
555,000000	0,367500
554,000000	0,367000
553,000000	0,363800
552,000000	0,367700
551,000000	0,366000
550,000000	0,367100
549,000000	0,367100
548,000000	0,367400
547,000000	0,360700
546,000000	0,363200
545,000000	0,361100
544,000000	0,359300
543,000000	0,357000
542,000000	0,357900
541,000000	0,352800
540,000000	0,352100
539,000000	0,347200
538,000000	0,346400
537,000000	0,345100
536,000000	0,341400
535,000000	0,334600
534,000000	0,335400
533,000000	0,330700
532,000000	0,328000
531,000000	0,323600
530,000000	0,318500
529,000000	0,314200
528,000000	0,312000
527,000000	0,304600
526,000000	0,299600
525,000000	0,298700
524,000000	0,292200
523,000000	0,282300
522,000000	0,280300
521,000000	0,274500
520,000000	0,268700
519,000000	0,261700
518,000000	0,256800
517,000000	0,249000
516,000000	0,245000
515,000000	0,238500
514,000000	0,234500
513,000000	0,227300
512,000000	0,221000
511,000000	0,214500
510,000000	0,208600
509,000000	0,202400
508,000000	0,199200
507,000000	0,192900
506,000000	0,186000
505,000000	0,180400
504,000000	0,179600
503,000000	0,174000
502,000000	0,169800
501,000000	0,167100
500,000000	0,164200
499,000000	0,159600
498,000000	0,159100
497,000000	0,157800
496,000000	0,156800
495,000000	0,155200
494,000000	0,153800
493,000000	0,153500
492,000000	0,155700
491,000000	0,156200
490,000000	0,158000
489,000000	0,159700
488,000000	0,162000
487,000000	0,166200
486,000000	0,170100
485,000000	0,172900
484,000000	0,179200
483,000000	0,183400
482,000000	0,187600
481,000000	0,190200
480,000000	0,187200
479,000000	0,185200
478,000000	0,186100
477,000000	0,184200
476,000000	0,180000
475,000000	0,179200
474,000000	0,179200
473,000000	0,176400
472,000000	0,175700
471,000000	0,173700
470,000000	0,171700
469,000000	0,169900
468,000000	0,167000
467,000000	0,166800
466,000000	0,165200
465,000000	0,162800
464,000000	0,162100
463,000000	0,159700
462,000000	0,154600
461,000000	0,153500
460,000000	0,154100
459,000000	0,150400
458,000000	0,147000
457,000000	0,145600
456,000000	0,141200
455,000000	0,139000
454,000000	0,138000
453,000000	0,134400
452,000000	0,132000
451,000000	0,129600
450,000000	0,122800
449,000000	0,119200
448,000000	0,119000
447,000000	0,115700
446,000000	0,112100
445,000000	0,110300
444,000000	0,107300
443,000000	0,106100
442,000000	0,106000
441,000000	0,104700
440,000000	0,104100
439,000000	0,102900
438,000000	0,099900
437,000000	0,099100
436,000000	0,100700
435,000000	0,100100
434,000000	0,099900
433,000000	0,100500
432,000000	0,098100
431,000000	0,097400
430,000000	0,100100
429,000000	0,100000
428,000000	0,100200
427,000000	0,100200
426,000000	0,098100
425,000000	0,097100
424,000000	0,098300
423,000000	0,098400
422,000000	0,098300
421,000000	0,096700
420,000000	0,093200
419,000000	0,092700
418,000000	0,094200
417,000000	0,094100
416,000000	0,093400
415,000000	0,092400
414,000000	0,090300
413,000000	0,091100
412,000000	0,092100
411,000000	0,089700
410,000000	0,091000
409,000000	0,088600
408,000000	0,085600
407,000000	0,085600
406,000000	0,087200
405,000000	0,085800
404,000000	0,084800
403,000000	0,083000
402,000000	0,080500
401,000000	0,078400
400,000000	0,079700
399,000000	0,078600
398,000000	0,078000
397,000000	0,075200
396,000000	0,072700
395,000000	0,070600
394,000000	0,070800
393,000000	0,069900
392,000000	0,067700
391,000000	0,064000
390,000000	0,062000
389,000000	0,061800
388,000000	0,061600
387,000000	0,059600
386,000000	0,057600
385,000000	0,055700
384,000000	0,052500
383,000000	0,054300
382,000000	0,052900
381,000000	0,052700
380,000000	0,050300
379,000000	0,049600
378,000000	0,017300
377,000000	0,003300
376,000000	0,002100
375,000000	0,003300
374,000000	0,002900
373,000000	0,004500
372,000000	0,008000
371,000000	0,007700
370,000000	0,007800
369,000000	0,005200
368,000000	0,005600
367,000000	0,007700
366,000000	0,006400
365,000000	0,009700
364,000000	0,007200
363,000000	0,006700
362,000000	0,004200
361,000000	0,006200
360,000000	0,006600
359,000000	0,007300
358,000000	0,006200
357,000000	0,006000
356,000000	0,002000
355,000000	0,005900
354,000000	0,006300
353,000000	0,006400
352,000000	0,003500
351,000000	0,006000
350,000000	0,001700
349,000000	0,003900
348,000000	0,004600
347,000000	0,004500
346,000000	0,003200
345,000000	0,000700
344,000000	0,001000
343,000000	0,001300
342,000000	0,002300
341,000000	0,001300
340,000000	0,001700
339,000000	-0,000800
338,000000	0,000600
337,000000	0,001400
336,000000	-0,001000
335,000000	0,000600
334,000000	0,000800
333,000000	-0,002000
332,000000	-0,002300
331,000000	0,001300
330,000000	-0,000200
329,000000	-0,001200
328,000000	-0,001800
327,000000	-0,002800
326,000000	0,001000
325,000000	-0,000700
324,000000	-0,000300
323,000000	-0,001800
322,000000	-0,005000
321,000000	-0,001800
320,000000	-0,000200
319,000000	0,000800
318,000000	0,001400
317,000000	-0,000300
316,000000	-0,000700
315,000000	-0,001600
314,000000	0,001200
313,000000	-0,000000
312,000000	0,001800
311,000000	-0,002200
310,000000	-0,003200
309,000000	-0,002900
308,000000	-0,001100
307,000000	-0,000600
306,000000	-0,000200
305,000000	-0,004700
304,000000	-0,005400
303,000000	-0,005900
302,000000	-0,001500
301,000000	-0,001900
300,000000	-0,001200
