PE UV       SUBTECH     SPECTRUM    ASCII       PEDS        4.00        
   -1
Sample6215.Sample.asc
24/04/10
23:51:14.00
24/04/10
23:51:14.00
Analyst

300,000000
1
Lambda 850
850N4111301
PerkinElmer UV WinLab 6.4.0.971 / 1.61.00 Lambda 800

0
0
2
0
0
VIS
1
1
1
RBeamAtt,SBeamAtt,150mm sphere / downward view
0
0
0
0
Fix
 
0
0,2
0
30
0
 
 
 
0
 
0
150
0
Front
100
 
S:100 R:100
 
0
0
0
 
0
 
 
 
0
 
 
0
0
0
0
0
 
 
 
 
0
0


0
0
#HDR
-1
-1
#GR
nm
EGY
1.0
0.0
900,000000
-1,000000
601
8
0,516000
-0,007600
#DATA
900,000000	-0,002600
899,000000	-0,002100
898,000000	-0,002100
897,000000	-0,005600
896,000000	-0,007600
895,000000	-0,002100
894,000000	-0,001200
893,000000	-0,000900
892,000000	-0,003200
891,000000	-0,004000
890,000000	-0,003900
889,000000	-0,000700
888,000000	-0,001400
887,000000	-0,002400
886,000000	-0,003500
885,000000	-0,001900
884,000000	-0,003300
883,000000	-0,001700
882,000000	-0,001400
881,000000	-0,001800
880,000000	-0,003700
879,000000	-0,002700
878,000000	-0,005000
877,000000	-0,002700
876,000000	-0,001400
875,000000	-0,000500
874,000000	-0,002400
873,000000	-0,001500
872,000000	-0,001300
871,000000	-0,000600
870,000000	-0,002200
869,000000	-0,001400
868,000000	-0,001400
867,000000	-0,003500
866,000000	-0,004700
865,000000	0,000600
864,000000	-0,000600
863,000000	-0,002600
862,000000	-0,000300
861,000000	-0,002300
860,000000	-0,002700
859,000000	0,001000
858,000000	0,001000
857,000000	0,001000
856,000000	0,001100
855,000000	0,001700
854,000000	0,001900
853,000000	0,004300
852,000000	0,003000
851,000000	0,001600
850,000000	0,003800
849,000000	0,006200
848,000000	0,005500
847,000000	0,006300
846,000000	0,010000
845,000000	0,010800
844,000000	0,007700
843,000000	0,012100
842,000000	0,012000
841,000000	0,012800
840,000000	0,016000
839,000000	0,015700
838,000000	0,016800
837,000000	0,020000
836,000000	0,020300
835,000000	0,022900
834,000000	0,023800
833,000000	0,026800
832,000000	0,028500
831,000000	0,028500
830,000000	0,031000
829,000000	0,033000
828,000000	0,033000
827,000000	0,036300
826,000000	0,034700
825,000000	0,038000
824,000000	0,041000
823,000000	0,040500
822,000000	0,041400
821,000000	0,044100
820,000000	0,043500
819,000000	0,045200
818,000000	0,045500
817,000000	0,046700
816,000000	0,048500
815,000000	0,048000
814,000000	0,047300
813,000000	0,049000
812,000000	0,050800
811,000000	0,051200
810,000000	0,052800
809,000000	0,057200
808,000000	0,059800
807,000000	0,060400
806,000000	0,060400
805,000000	0,061200
804,000000	0,064100
803,000000	0,064100
802,000000	0,063000
801,000000	0,065400
800,000000	0,066100
799,000000	0,066600
798,000000	0,067100
797,000000	0,069000
796,000000	0,068600
795,000000	0,067300
794,000000	0,068400
793,000000	0,072000
792,000000	0,072600
791,000000	0,072600
790,000000	0,074300
789,000000	0,074500
788,000000	0,074200
787,000000	0,076800
786,000000	0,077400
785,000000	0,077600
784,000000	0,078800
783,000000	0,078100
782,000000	0,079700
781,000000	0,082100
780,000000	0,082300
779,000000	0,082900
778,000000	0,083100
777,000000	0,083700
776,000000	0,085300
775,000000	0,087000
774,000000	0,089200
773,000000	0,089900
772,000000	0,088400
771,000000	0,089000
770,000000	0,091500
769,000000	0,092300
768,000000	0,093200
767,000000	0,095100
766,000000	0,094800
765,000000	0,093200
764,000000	0,094900
763,000000	0,097800
762,000000	0,098100
761,000000	0,098700
760,000000	0,100100
759,000000	0,101300
758,000000	0,103700
757,000000	0,106400
756,000000	0,107100
755,000000	0,106800
754,000000	0,108300
753,000000	0,109000
752,000000	0,109900
751,000000	0,111800
750,000000	0,113300
749,000000	0,114700
748,000000	0,114700
747,000000	0,114400
746,000000	0,116900
745,000000	0,119800
744,000000	0,122300
743,000000	0,124000
742,000000	0,122900
741,000000	0,123700
740,000000	0,127100
739,000000	0,129400
738,000000	0,131000
737,000000	0,131200
736,000000	0,130900
735,000000	0,132000
734,000000	0,135600
733,000000	0,139400
732,000000	0,141800
731,000000	0,142700
730,000000	0,143600
729,000000	0,145000
728,000000	0,147200
727,000000	0,150300
726,000000	0,151900
725,000000	0,153200
724,000000	0,155400
723,000000	0,158100
722,000000	0,160300
721,000000	0,161800
720,000000	0,164100
719,000000	0,167300
718,000000	0,168000
717,000000	0,169500
716,000000	0,174300
715,000000	0,176900
714,000000	0,177700
713,000000	0,179800
712,000000	0,181200
711,000000	0,181900
710,000000	0,185800
709,000000	0,189300
708,000000	0,190800
707,000000	0,192700
706,000000	0,193300
705,000000	0,193300
704,000000	0,196700
703,000000	0,200600
702,000000	0,203100
701,000000	0,204200
700,000000	0,204900
699,000000	0,207100
698,000000	0,209400
697,000000	0,212000
696,000000	0,215000
695,000000	0,216700
694,000000	0,216100
693,000000	0,217000
692,000000	0,220300
691,000000	0,223100
690,000000	0,225700
689,000000	0,236300
688,000000	0,241200
687,000000	0,245800
686,000000	0,249200
685,000000	0,255300
684,000000	0,258600
683,000000	0,261300
682,000000	0,266900
681,000000	0,271200
680,000000	0,273400
679,000000	0,277300
678,000000	0,280900
677,000000	0,284300
676,000000	0,283200
675,000000	0,285900
674,000000	0,290500
673,000000	0,296600
672,000000	0,298000
671,000000	0,302500
670,000000	0,304000
669,000000	0,304500
668,000000	0,307700
667,000000	0,315000
666,000000	0,317600
665,000000	0,320400
664,000000	0,322300
663,000000	0,324500
662,000000	0,326600
661,000000	0,332900
660,000000	0,338400
659,000000	0,339100
658,000000	0,341000
657,000000	0,345600
656,000000	0,346700
655,000000	0,351300
654,000000	0,356800
653,000000	0,359600
652,000000	0,359800
651,000000	0,363700
650,000000	0,365800
649,000000	0,370500
648,000000	0,375300
647,000000	0,379200
646,000000	0,380600
645,000000	0,383100
644,000000	0,385500
643,000000	0,389900
642,000000	0,393500
641,000000	0,398200
640,000000	0,398600
639,000000	0,401300
638,000000	0,404400
637,000000	0,409900
636,000000	0,412800
635,000000	0,416500
634,000000	0,416700
633,000000	0,418800
632,000000	0,424900
631,000000	0,427300
630,000000	0,430500
629,000000	0,433000
628,000000	0,433500
627,000000	0,438800
626,000000	0,440300
625,000000	0,443200
624,000000	0,448700
623,000000	0,451900
622,000000	0,449100
621,000000	0,453300
620,000000	0,455600
619,000000	0,460500
618,000000	0,462200
617,000000	0,465900
616,000000	0,468500
615,000000	0,467300
614,000000	0,474300
613,000000	0,475300
612,000000	0,478600
611,000000	0,479100
610,000000	0,479900
609,000000	0,483500
608,000000	0,481800
607,000000	0,488400
606,000000	0,492400
605,000000	0,493300
604,000000	0,490900
603,000000	0,494500
602,000000	0,494900
601,000000	0,499100
600,000000	0,500700
599,000000	0,502100
598,000000	0,499500
597,000000	0,502000
596,000000	0,502900
595,000000	0,506500
594,000000	0,509200
593,000000	0,513000
592,000000	0,511400
591,000000	0,507700
590,000000	0,511900
589,000000	0,512600
588,000000	0,514600
587,000000	0,513600
586,000000	0,508900
585,000000	0,512700
584,000000	0,510500
583,000000	0,514900
582,000000	0,516000
581,000000	0,514300
580,000000	0,510200
579,000000	0,512700
578,000000	0,510100
577,000000	0,513000
576,000000	0,512200
575,000000	0,509400
574,000000	0,504500
573,000000	0,502900
572,000000	0,501000
571,000000	0,503000
570,000000	0,496700
569,000000	0,493100
568,000000	0,491300
567,000000	0,482900
566,000000	0,482100
565,000000	0,472300
564,000000	0,468400
563,000000	0,461900
562,000000	0,447500
561,000000	0,423900
560,000000	0,426500
559,000000	0,422800
558,000000	0,429900
557,000000	0,429300
556,000000	0,431500
555,000000	0,431100
554,000000	0,429700
553,000000	0,430800
552,000000	0,430600
551,000000	0,434200
550,000000	0,432900
549,000000	0,431800
548,000000	0,433900
547,000000	0,427700
546,000000	0,429100
545,000000	0,426500
544,000000	0,427000
543,000000	0,424200
542,000000	0,418200
541,000000	0,418300
540,000000	0,418600
539,000000	0,415800
538,000000	0,413400
537,000000	0,412600
536,000000	0,408000
535,000000	0,404100
534,000000	0,402200
533,000000	0,395500
532,000000	0,392500
531,000000	0,390500
530,000000	0,386800
529,000000	0,381600
528,000000	0,378800
527,000000	0,372700
526,000000	0,369100
525,000000	0,365800
524,000000	0,362400
523,000000	0,353000
522,000000	0,352300
521,000000	0,347800
520,000000	0,344000
519,000000	0,336800
518,000000	0,332700
517,000000	0,329100
516,000000	0,324800
515,000000	0,319700
514,000000	0,317800
513,000000	0,314300
512,000000	0,307900
511,000000	0,304800
510,000000	0,301900
509,000000	0,297500
508,000000	0,294900
507,000000	0,293700
506,000000	0,287500
505,000000	0,284200
504,000000	0,286000
503,000000	0,284100
502,000000	0,281800
501,000000	0,283000
500,000000	0,280800
499,000000	0,278700
498,000000	0,281200
497,000000	0,283100
496,000000	0,285000
495,000000	0,287500
494,000000	0,289700
493,000000	0,292900
492,000000	0,297300
491,000000	0,302500
490,000000	0,308400
489,000000	0,316000
488,000000	0,324300
487,000000	0,331000
486,000000	0,340500
485,000000	0,349400
484,000000	0,360500
483,000000	0,373100
482,000000	0,377700
481,000000	0,378500
480,000000	0,381300
479,000000	0,378000
478,000000	0,373600
477,000000	0,373100
476,000000	0,369800
475,000000	0,363900
474,000000	0,363800
473,000000	0,361900
472,000000	0,358700
471,000000	0,355700
470,000000	0,353800
469,000000	0,350900
468,000000	0,344400
467,000000	0,341400
466,000000	0,339800
465,000000	0,335700
464,000000	0,330100
463,000000	0,326100
462,000000	0,323000
461,000000	0,316700
460,000000	0,313300
459,000000	0,310800
458,000000	0,306500
457,000000	0,302100
456,000000	0,299700
455,000000	0,296200
454,000000	0,295000
453,000000	0,293900
452,000000	0,288500
451,000000	0,283300
450,000000	0,283200
449,000000	0,282000
448,000000	0,279500
447,000000	0,277300
446,000000	0,274800
445,000000	0,273400
444,000000	0,273900
443,000000	0,272600
442,000000	0,273400
441,000000	0,273700
440,000000	0,271400
439,000000	0,270600
438,000000	0,269700
437,000000	0,267400
436,000000	0,267400
435,000000	0,264500
434,000000	0,261200
433,000000	0,261000
432,000000	0,258300
431,000000	0,255800
430,000000	0,256200
429,000000	0,255500
428,000000	0,250500
427,000000	0,246800
426,000000	0,245200
425,000000	0,243800
424,000000	0,242400
423,000000	0,240300
422,000000	0,235500
421,000000	0,233100
420,000000	0,232100
419,000000	0,230300
418,000000	0,226400
417,000000	0,224300
416,000000	0,221300
415,000000	0,217600
414,000000	0,213500
413,000000	0,211300
412,000000	0,209500
411,000000	0,205900
410,000000	0,201700
409,000000	0,197800
408,000000	0,192300
407,000000	0,188000
406,000000	0,185700
405,000000	0,184500
404,000000	0,178400
403,000000	0,174800
402,000000	0,170800
401,000000	0,167100
400,000000	0,164200
399,000000	0,159900
398,000000	0,154900
397,000000	0,151100
396,000000	0,146400
395,000000	0,145500
394,000000	0,141900
393,000000	0,139100
392,000000	0,133900
391,000000	0,132100
390,000000	0,128000
389,000000	0,125000
388,000000	0,122500
387,000000	0,119400
386,000000	0,116500
385,000000	0,112700
384,000000	0,108200
383,000000	0,106700
382,000000	0,105600
381,000000	0,103000
380,000000	0,097900
379,000000	0,094900
378,000000	0,033300
377,000000	0,009900
376,000000	0,010100
375,000000	0,009500
374,000000	0,011500
373,000000	0,014200
372,000000	0,015500
371,000000	0,017400
370,000000	0,015700
369,000000	0,014200
368,000000	0,014400
367,000000	0,016500
366,000000	0,017100
365,000000	0,016700
364,000000	0,015200
363,000000	0,013900
362,000000	0,012400
361,000000	0,014100
360,000000	0,015000
359,000000	0,014600
358,000000	0,011600
357,000000	0,015900
356,000000	0,013800
355,000000	0,012500
354,000000	0,012300
353,000000	0,012200
352,000000	0,009400
351,000000	0,010400
350,000000	0,008500
349,000000	0,010300
348,000000	0,009900
347,000000	0,008900
346,000000	0,008100
345,000000	0,007600
344,000000	0,005700
343,000000	0,006500
342,000000	0,007000
341,000000	0,007300
340,000000	0,004500
339,000000	0,004500
338,000000	0,004300
337,000000	0,005300
336,000000	0,005800
335,000000	0,003300
334,000000	0,000600
333,000000	0,003500
332,000000	0,002700
331,000000	0,002000
330,000000	0,003200
329,000000	0,001600
328,000000	0,000000
327,000000	0,000200
326,000000	0,001300
325,000000	0,000500
324,000000	0,000100
323,000000	0,000600
322,000000	0,002800
321,000000	-0,001600
320,000000	-0,004400
319,000000	0,000200
318,000000	0,005200
317,000000	0,002100
316,000000	0,000800
315,000000	0,001400
314,000000	0,000700
313,000000	-0,000200
312,000000	0,001600
311,000000	0,001100
310,000000	-0,001200
309,000000	-0,003200
308,000000	-0,000600
307,000000	0,000700
306,000000	-0,003000
305,000000	-0,005700
304,000000	-0,005000
303,000000	-0,003500
302,000000	-0,003000
301,000000	-0,001400
300,000000	-0,002900
