PE UV       SUBTECH     SPECTRUM    ASCII       PEDS        4.00        
   -1
Sample6217.Sample.asc
24/04/10
23:59:02.00
24/04/10
23:59:02.00
Analyst

300,000000
1
Lambda 850
850N4111301
PerkinElmer UV WinLab 6.4.0.971 / 1.61.00 Lambda 800

0
0
2
0
0
VIS
1
1
1
RBeamAtt,SBeamAtt,150mm sphere / downward view
0
0
0
0
Fix
 
0
0,2
0
30
0
 
 
 
0
 
0
150
0
Front
100
 
S:100 R:100
 
0
0
0
 
0
 
 
 
0
 
 
0
0
0
0
0
 
 
 
 
0
0


0
0
#HDR
-1
-1
#GR
nm
EGY
1.0
0.0
900,000000
-1,000000
601
8
0,401300
-0,006600
#DATA
900,000000	-0,001400
899,000000	-0,002900
898,000000	-0,006600
897,000000	-0,003800
896,000000	-0,006100
895,000000	-0,003900
894,000000	-0,000500
893,000000	-0,003800
892,000000	-0,004600
891,000000	-0,002100
890,000000	-0,004200
889,000000	-0,001000
888,000000	-0,003300
887,000000	-0,000500
886,000000	-0,003500
885,000000	-0,004700
884,000000	-0,001900
883,000000	-0,002300
882,000000	-0,001200
881,000000	-0,003100
880,000000	-0,002600
879,000000	-0,003400
878,000000	-0,004100
877,000000	-0,000400
876,000000	-0,002900
875,000000	-0,000400
874,000000	-0,002900
873,000000	-0,003900
872,000000	-0,003900
871,000000	-0,002400
870,000000	-0,000400
869,000000	0,000400
868,000000	-0,002800
867,000000	-0,002700
866,000000	-0,001300
865,000000	-0,000200
864,000000	-0,000400
863,000000	0,001100
862,000000	-0,001500
861,000000	-0,002800
860,000000	-0,002800
859,000000	-0,001600
858,000000	0,000600
857,000000	-0,001100
856,000000	-0,002400
855,000000	0,001600
854,000000	0,003800
853,000000	0,003600
852,000000	0,002600
851,000000	0,002100
850,000000	0,001800
849,000000	0,003300
848,000000	0,005800
847,000000	0,008000
846,000000	0,007500
845,000000	0,006900
844,000000	0,009200
843,000000	0,012000
842,000000	0,011100
841,000000	0,011600
840,000000	0,014800
839,000000	0,013000
838,000000	0,014200
837,000000	0,018800
836,000000	0,017600
835,000000	0,020600
834,000000	0,021500
833,000000	0,021500
832,000000	0,023200
831,000000	0,027300
830,000000	0,029000
829,000000	0,028400
828,000000	0,031900
827,000000	0,032800
826,000000	0,032600
825,000000	0,034800
824,000000	0,036200
823,000000	0,038200
822,000000	0,039200
821,000000	0,040900
820,000000	0,039100
819,000000	0,040000
818,000000	0,042000
817,000000	0,043300
816,000000	0,043800
815,000000	0,044500
814,000000	0,045800
813,000000	0,046500
812,000000	0,046100
811,000000	0,046300
810,000000	0,049500
809,000000	0,054000
808,000000	0,053400
807,000000	0,052700
806,000000	0,056100
805,000000	0,057300
804,000000	0,056600
803,000000	0,058400
802,000000	0,059200
801,000000	0,056200
800,000000	0,057300
799,000000	0,061900
798,000000	0,062700
797,000000	0,062200
796,000000	0,063600
795,000000	0,064600
794,000000	0,063100
793,000000	0,065100
792,000000	0,067700
791,000000	0,066900
790,000000	0,067400
789,000000	0,069500
788,000000	0,068200
787,000000	0,069600
786,000000	0,071900
785,000000	0,072300
784,000000	0,071200
783,000000	0,071200
782,000000	0,074000
781,000000	0,075600
780,000000	0,074700
779,000000	0,075500
778,000000	0,076300
777,000000	0,074800
776,000000	0,075700
775,000000	0,079400
774,000000	0,081000
773,000000	0,081800
772,000000	0,081400
771,000000	0,081700
770,000000	0,083800
769,000000	0,084200
768,000000	0,085000
767,000000	0,086400
766,000000	0,085600
765,000000	0,085400
764,000000	0,087400
763,000000	0,089400
762,000000	0,090100
761,000000	0,091000
760,000000	0,091900
759,000000	0,092600
758,000000	0,094000
757,000000	0,096000
756,000000	0,097500
755,000000	0,097900
754,000000	0,098600
753,000000	0,099100
752,000000	0,100500
751,000000	0,103000
750,000000	0,103500
749,000000	0,102700
748,000000	0,104600
747,000000	0,104600
746,000000	0,105300
745,000000	0,109200
744,000000	0,110500
743,000000	0,110300
742,000000	0,111500
741,000000	0,111900
740,000000	0,113000
739,000000	0,116500
738,000000	0,118800
737,000000	0,119400
736,000000	0,118500
735,000000	0,119900
734,000000	0,123700
733,000000	0,125800
732,000000	0,128200
731,000000	0,128300
730,000000	0,127800
729,000000	0,129400
728,000000	0,132900
727,000000	0,134800
726,000000	0,135900
725,000000	0,138800
724,000000	0,138900
723,000000	0,140200
722,000000	0,143900
721,000000	0,145900
720,000000	0,146600
719,000000	0,148000
718,000000	0,149500
717,000000	0,150900
716,000000	0,151100
715,000000	0,154000
714,000000	0,157400
713,000000	0,156200
712,000000	0,157000
711,000000	0,156500
710,000000	0,159800
709,000000	0,161500
708,000000	0,161300
707,000000	0,160400
706,000000	0,159400
705,000000	0,159900
704,000000	0,163100
703,000000	0,162400
702,000000	0,162400
701,000000	0,162500
700,000000	0,159200
699,000000	0,157400
698,000000	0,157800
697,000000	0,155900
696,000000	0,153000
695,000000	0,147600
694,000000	0,143500
693,000000	0,139600
692,000000	0,138400
691,000000	0,134900
690,000000	0,128400
689,000000	0,128900
688,000000	0,126000
687,000000	0,121100
686,000000	0,117300
685,000000	0,115800
684,000000	0,115200
683,000000	0,114400
682,000000	0,112100
681,000000	0,112600
680,000000	0,112800
679,000000	0,116500
678,000000	0,118300
677,000000	0,120500
676,000000	0,121400
675,000000	0,121900
674,000000	0,123900
673,000000	0,127800
672,000000	0,130200
671,000000	0,133400
670,000000	0,133200
669,000000	0,138400
668,000000	0,141900
667,000000	0,147700
666,000000	0,155300
665,000000	0,160200
664,000000	0,164400
663,000000	0,169400
662,000000	0,177400
661,000000	0,183300
660,000000	0,189600
659,000000	0,197700
658,000000	0,198000
657,000000	0,201300
656,000000	0,206800
655,000000	0,210400
654,000000	0,214400
653,000000	0,217900
652,000000	0,217000
651,000000	0,221300
650,000000	0,224100
649,000000	0,231400
648,000000	0,236900
647,000000	0,240000
646,000000	0,245700
645,000000	0,252700
644,000000	0,255900
643,000000	0,262100
642,000000	0,269900
641,000000	0,272500
640,000000	0,273200
639,000000	0,279000
638,000000	0,282700
637,000000	0,287500
636,000000	0,288300
635,000000	0,291900
634,000000	0,292000
633,000000	0,294100
632,000000	0,296400
631,000000	0,299200
630,000000	0,301200
629,000000	0,306000
628,000000	0,306500
627,000000	0,306800
626,000000	0,309900
625,000000	0,313900
624,000000	0,316500
623,000000	0,317500
622,000000	0,317000
621,000000	0,322800
620,000000	0,323200
619,000000	0,328600
618,000000	0,331700
617,000000	0,333900
616,000000	0,332800
615,000000	0,338400
614,000000	0,339400
613,000000	0,344200
612,000000	0,348900
611,000000	0,351600
610,000000	0,350100
609,000000	0,354300
608,000000	0,356900
607,000000	0,361800
606,000000	0,363600
605,000000	0,366700
604,000000	0,369500
603,000000	0,367600
602,000000	0,372200
601,000000	0,374100
600,000000	0,375600
599,000000	0,377400
598,000000	0,376200
597,000000	0,378700
596,000000	0,379000
595,000000	0,383900
594,000000	0,385000
593,000000	0,385200
592,000000	0,382100
591,000000	0,388600
590,000000	0,391200
589,000000	0,390200
588,000000	0,390300
587,000000	0,393300
586,000000	0,390400
585,000000	0,391900
584,000000	0,391800
583,000000	0,398100
582,000000	0,397600
581,000000	0,399300
580,000000	0,400900
579,000000	0,395800
578,000000	0,399700
577,000000	0,399300
576,000000	0,399300
575,000000	0,398800
574,000000	0,398100
573,000000	0,398200
572,000000	0,395100
571,000000	0,401300
570,000000	0,399000
569,000000	0,396400
568,000000	0,390900
567,000000	0,390000
566,000000	0,385900
565,000000	0,383000
564,000000	0,379100
563,000000	0,373500
562,000000	0,362700
561,000000	0,343700
560,000000	0,347400
559,000000	0,346500
558,000000	0,349200
557,000000	0,349500
556,000000	0,354300
555,000000	0,354300
554,000000	0,350200
553,000000	0,352000
552,000000	0,353100
551,000000	0,353800
550,000000	0,354200
549,000000	0,353800
548,000000	0,353300
547,000000	0,348400
546,000000	0,348600
545,000000	0,347800
544,000000	0,347900
543,000000	0,345400
542,000000	0,343900
541,000000	0,339800
540,000000	0,338400
539,000000	0,334700
538,000000	0,334900
537,000000	0,332100
536,000000	0,326000
535,000000	0,324800
534,000000	0,321300
533,000000	0,317500
532,000000	0,316600
531,000000	0,311200
530,000000	0,304700
529,000000	0,300100
528,000000	0,297200
527,000000	0,295400
526,000000	0,289400
525,000000	0,282300
524,000000	0,275800
523,000000	0,270700
522,000000	0,266000
521,000000	0,262200
520,000000	0,257100
519,000000	0,249900
518,000000	0,244000
517,000000	0,235700
516,000000	0,231800
515,000000	0,226600
514,000000	0,219600
513,000000	0,212300
512,000000	0,207700
511,000000	0,199900
510,000000	0,193800
509,000000	0,188700
508,000000	0,183900
507,000000	0,179100
506,000000	0,171200
505,000000	0,166900
504,000000	0,162800
503,000000	0,159200
502,000000	0,156800
501,000000	0,152100
500,000000	0,148900
499,000000	0,145900
498,000000	0,143000
497,000000	0,141800
496,000000	0,139700
495,000000	0,139500
494,000000	0,138400
493,000000	0,135700
492,000000	0,136500
491,000000	0,139700
490,000000	0,140100
489,000000	0,141500
488,000000	0,144000
487,000000	0,144500
486,000000	0,150000
485,000000	0,154800
484,000000	0,158900
483,000000	0,162500
482,000000	0,164400
481,000000	0,166900
480,000000	0,164600
479,000000	0,164100
478,000000	0,163800
477,000000	0,159800
476,000000	0,160200
475,000000	0,159800
474,000000	0,154700
473,000000	0,154000
472,000000	0,153800
471,000000	0,152500
470,000000	0,150700
469,000000	0,147800
468,000000	0,148800
467,000000	0,147000
466,000000	0,144600
465,000000	0,143800
464,000000	0,141800
463,000000	0,137800
462,000000	0,136600
461,000000	0,134500
460,000000	0,134500
459,000000	0,130800
458,000000	0,129000
457,000000	0,128900
456,000000	0,123000
455,000000	0,119500
454,000000	0,119800
453,000000	0,116500
452,000000	0,114500
451,000000	0,113000
450,000000	0,105400
449,000000	0,102500
448,000000	0,102700
447,000000	0,098800
446,000000	0,095900
445,000000	0,094400
444,000000	0,090600
443,000000	0,088500
442,000000	0,089100
441,000000	0,087700
440,000000	0,086300
439,000000	0,085800
438,000000	0,083500
437,000000	0,082400
436,000000	0,084100
435,000000	0,085400
434,000000	0,084000
433,000000	0,082100
432,000000	0,081000
431,000000	0,081900
430,000000	0,084300
429,000000	0,085600
428,000000	0,083300
427,000000	0,083200
426,000000	0,083500
425,000000	0,082400
424,000000	0,083000
423,000000	0,082900
422,000000	0,082000
421,000000	0,080900
420,000000	0,078500
419,000000	0,078500
418,000000	0,080400
417,000000	0,081800
416,000000	0,078700
415,000000	0,077300
414,000000	0,078300
413,000000	0,078400
412,000000	0,077500
411,000000	0,076400
410,000000	0,077800
409,000000	0,076700
408,000000	0,073100
407,000000	0,074000
406,000000	0,075800
405,000000	0,074600
404,000000	0,071900
403,000000	0,070900
402,000000	0,069100
401,000000	0,069200
400,000000	0,071700
399,000000	0,069900
398,000000	0,065300
397,000000	0,064500
396,000000	0,064200
395,000000	0,063100
394,000000	0,062500
393,000000	0,061800
392,000000	0,061600
391,000000	0,057500
390,000000	0,054200
389,000000	0,054800
388,000000	0,052900
387,000000	0,053100
386,000000	0,052100
385,000000	0,048700
384,000000	0,048200
383,000000	0,049900
382,000000	0,046800
381,000000	0,046400
380,000000	0,046000
379,000000	0,043000
378,000000	0,012700
377,000000	0,001800
376,000000	0,002500
375,000000	0,002200
374,000000	0,000800
373,000000	0,002800
372,000000	0,005400
371,000000	0,006300
370,000000	0,004600
369,000000	0,005500
368,000000	0,005400
367,000000	0,005100
366,000000	0,005700
365,000000	0,007300
364,000000	0,006500
363,000000	0,005700
362,000000	0,006800
361,000000	0,006800
360,000000	0,006300
359,000000	0,006900
358,000000	0,006500
357,000000	0,004500
356,000000	0,004700
355,000000	0,006000
354,000000	0,005100
353,000000	0,003300
352,000000	0,006700
351,000000	0,003600
350,000000	0,001200
349,000000	0,003600
348,000000	0,002500
347,000000	0,002500
346,000000	0,003400
345,000000	0,001300
344,000000	0,002000
343,000000	0,001900
342,000000	0,000200
341,000000	0,001700
340,000000	0,000400
339,000000	-0,000000
338,000000	0,000500
337,000000	0,001100
336,000000	0,000800
335,000000	0,000000
334,000000	0,000600
333,000000	-0,000300
332,000000	-0,001500
331,000000	-0,000500
330,000000	0,002000
329,000000	-0,002300
328,000000	-0,003500
327,000000	-0,001800
326,000000	-0,001800
325,000000	0,001100
324,000000	-0,000400
323,000000	-0,003300
322,000000	0,000300
321,000000	-0,002700
320,000000	-0,003700
319,000000	-0,001400
318,000000	0,000700
317,000000	-0,001100
316,000000	-0,001600
315,000000	-0,002400
314,000000	-0,002100
313,000000	0,002100
312,000000	-0,000500
311,000000	-0,003700
310,000000	0,001300
309,000000	-0,002300
308,000000	-0,004900
307,000000	-0,001900
306,000000	-0,002000
305,000000	-0,005400
304,000000	-0,006200
303,000000	-0,004900
302,000000	-0,003000
301,000000	-0,003700
300,000000	-0,001300
