PE UV       SUBTECH     SPECTRUM    ASCII       PEDS        4.00        
   -1
Sample5214.Sample.asc
23/11/29
23:16:05.00
23/11/29
23:16:05.00
Analyst

400,000000
1
Lambda 850
850N4111301
PerkinElmer UV WinLab 6.4.0.971 / 1.61.00 Lambda 800

0
0
2
0
0
VIS
1
1
1
RBeamAtt,SBeamAtt,150mm sphere / downward view
0
0
0
0
Fix
 
0
0,2
0
30
0
 
 
 
0
 
0
150
0
Front
100
 
S:100 R:100
 
0
0
0
 
0
 
 
 
0
 
 
0
0
0
0
0
 
 
 
 
0
0


0
0
#HDR
-1
-1
#GR
nm
EGY
1.0
0.0
700,000000
-1,000000
301
8
0,037900
0,005400
#DATA
700,000000	0,013200
699,000000	0,013000
698,000000	0,011300
697,000000	0,010600
696,000000	0,009500
695,000000	0,012300
694,000000	0,014600
693,000000	0,014000
692,000000	0,011300
691,000000	0,009000
690,000000	0,015600
689,000000	0,014100
688,000000	0,013500
687,000000	0,015100
686,000000	0,013700
685,000000	0,015600
684,000000	0,014200
683,000000	0,015900
682,000000	0,016300
681,000000	0,015200
680,000000	0,014800
679,000000	0,017000
678,000000	0,016900
677,000000	0,017200
676,000000	0,016400
675,000000	0,015600
674,000000	0,017100
673,000000	0,016900
672,000000	0,018000
671,000000	0,018700
670,000000	0,018300
669,000000	0,018300
668,000000	0,019500
667,000000	0,018800
666,000000	0,019600
665,000000	0,020700
664,000000	0,020000
663,000000	0,021000
662,000000	0,019600
661,000000	0,021600
660,000000	0,021600
659,000000	0,021500
658,000000	0,022900
657,000000	0,021000
656,000000	0,020900
655,000000	0,023200
654,000000	0,022700
653,000000	0,023000
652,000000	0,024500
651,000000	0,025300
650,000000	0,022700
649,000000	0,024900
648,000000	0,025500
647,000000	0,026200
646,000000	0,024400
645,000000	0,024100
644,000000	0,025500
643,000000	0,025700
642,000000	0,026000
641,000000	0,026800
640,000000	0,025300
639,000000	0,024500
638,000000	0,025900
637,000000	0,026900
636,000000	0,028200
635,000000	0,028800
634,000000	0,027700
633,000000	0,026900
632,000000	0,028700
631,000000	0,030300
630,000000	0,030000
629,000000	0,029500
628,000000	0,028800
627,000000	0,029100
626,000000	0,029600
625,000000	0,031100
624,000000	0,031900
623,000000	0,030900
622,000000	0,028800
621,000000	0,030000
620,000000	0,029900
619,000000	0,031200
618,000000	0,032600
617,000000	0,032400
616,000000	0,031900
615,000000	0,031800
614,000000	0,032800
613,000000	0,033200
612,000000	0,032900
611,000000	0,033100
610,000000	0,030900
609,000000	0,031200
608,000000	0,031600
607,000000	0,034400
606,000000	0,034100
605,000000	0,034400
604,000000	0,034200
603,000000	0,032700
602,000000	0,033600
601,000000	0,035800
600,000000	0,036000
599,000000	0,034700
598,000000	0,034000
597,000000	0,035000
596,000000	0,035400
595,000000	0,035300
594,000000	0,037100
593,000000	0,035900
592,000000	0,034300
591,000000	0,034400
590,000000	0,034700
589,000000	0,035900
588,000000	0,036800
587,000000	0,036300
586,000000	0,034500
585,000000	0,035000
584,000000	0,036800
583,000000	0,037900
582,000000	0,037100
581,000000	0,036000
580,000000	0,035300
579,000000	0,034700
578,000000	0,034500
577,000000	0,037200
576,000000	0,036800
575,000000	0,035000
574,000000	0,033700
573,000000	0,034400
572,000000	0,035300
571,000000	0,035900
570,000000	0,036300
569,000000	0,034400
568,000000	0,032400
567,000000	0,033300
566,000000	0,032900
565,000000	0,033500
564,000000	0,034500
563,000000	0,034200
562,000000	0,030900
561,000000	0,028300
560,000000	0,030300
559,000000	0,030100
558,000000	0,028500
557,000000	0,029800
556,000000	0,030800
555,000000	0,031300
554,000000	0,029300
553,000000	0,028300
552,000000	0,028800
551,000000	0,029600
550,000000	0,030600
549,000000	0,030400
548,000000	0,031600
547,000000	0,029300
546,000000	0,029300
545,000000	0,030300
544,000000	0,029000
543,000000	0,029700
542,000000	0,031300
541,000000	0,029100
540,000000	0,028100
539,000000	0,029600
538,000000	0,029400
537,000000	0,028800
536,000000	0,027600
535,000000	0,026700
534,000000	0,027500
533,000000	0,027200
532,000000	0,027700
531,000000	0,027400
530,000000	0,027000
529,000000	0,024900
528,000000	0,025400
527,000000	0,025300
526,000000	0,025700
525,000000	0,026500
524,000000	0,025000
523,000000	0,023000
522,000000	0,023100
521,000000	0,024300
520,000000	0,023500
519,000000	0,023100
518,000000	0,023200
517,000000	0,022500
516,000000	0,021500
515,000000	0,021600
514,000000	0,021500
513,000000	0,021100
512,000000	0,020800
511,000000	0,019900
510,000000	0,018800
509,000000	0,019200
508,000000	0,019200
507,000000	0,018700
506,000000	0,019600
505,000000	0,017600
504,000000	0,018500
503,000000	0,017500
502,000000	0,017700
501,000000	0,018600
500,000000	0,018300
499,000000	0,015600
498,000000	0,017000
497,000000	0,017400
496,000000	0,017200
495,000000	0,017800
494,000000	0,017800
493,000000	0,018200
492,000000	0,018500
491,000000	0,017600
490,000000	0,018800
489,000000	0,020300
488,000000	0,021400
487,000000	0,023200
486,000000	0,020600
485,000000	0,020300
484,000000	0,022500
483,000000	0,023600
482,000000	0,025300
481,000000	0,022300
480,000000	0,023800
479,000000	0,023100
478,000000	0,023700
477,000000	0,024300
476,000000	0,023900
475,000000	0,022100
474,000000	0,023800
473,000000	0,022300
472,000000	0,022800
471,000000	0,024700
470,000000	0,023900
469,000000	0,021300
468,000000	0,021400
467,000000	0,019800
466,000000	0,021600
465,000000	0,021600
464,000000	0,021200
463,000000	0,019500
462,000000	0,017500
461,000000	0,017600
460,000000	0,019700
459,000000	0,018800
458,000000	0,019300
457,000000	0,017300
456,000000	0,018500
455,000000	0,017000
454,000000	0,019500
453,000000	0,019000
452,000000	0,016800
451,000000	0,019400
450,000000	0,017400
449,000000	0,015700
448,000000	0,016800
447,000000	0,016500
446,000000	0,015800
445,000000	0,013400
444,000000	0,016400
443,000000	0,016100
442,000000	0,016000
441,000000	0,017100
440,000000	0,017600
439,000000	0,016500
438,000000	0,015300
437,000000	0,014200
436,000000	0,015400
435,000000	0,015500
434,000000	0,015500
433,000000	0,017600
432,000000	0,014400
431,000000	0,012700
430,000000	0,014500
429,000000	0,015300
428,000000	0,011400
427,000000	0,013600
426,000000	0,012100
425,000000	0,012800
424,000000	0,014900
423,000000	0,015500
422,000000	0,010800
421,000000	0,011200
420,000000	0,011300
419,000000	0,012900
418,000000	0,013600
417,000000	0,013600
416,000000	0,014200
415,000000	0,010700
414,000000	0,009700
413,000000	0,010200
412,000000	0,012300
411,000000	0,011200
410,000000	0,009500
409,000000	0,009200
408,000000	0,008500
407,000000	0,011900
406,000000	0,011200
405,000000	0,010000
404,000000	0,010400
403,000000	0,010400
402,000000	0,008600
401,000000	0,005400
400,000000	0,009200
