PE UV       SUBTECH     SPECTRUM    ASCII       PEDS        4.00        
   -1
Sample5211.Sample.asc
23/11/29
23:00:23.00
23/11/29
23:00:23.00
Analyst

400,000000
1
Lambda 850
850N4111301
PerkinElmer UV WinLab 6.4.0.971 / 1.61.00 Lambda 800

0
0
2
0
0
VIS
1
1
1
RBeamAtt,SBeamAtt,150mm sphere / downward view
0
0
0
0
Fix
 
0
0,2
0
30
0
 
 
 
0
 
0
150
0
Front
100
 
S:100 R:100
 
0
0
0
 
0
 
 
 
0
 
 
0
0
0
0
0
 
 
 
 
0
0


0
0
#HDR
-1
-1
#GR
nm
EGY
1.0
0.0
700,000000
-1,000000
301
8
0,401000
0,088200
#DATA
700,000000	0,167500
699,000000	0,167300
698,000000	0,167300
697,000000	0,166800
696,000000	0,166300
695,000000	0,168300
694,000000	0,168600
693,000000	0,169400
692,000000	0,166200
691,000000	0,164400
690,000000	0,166000
689,000000	0,173900
688,000000	0,171900
687,000000	0,170200
686,000000	0,172400
685,000000	0,170800
684,000000	0,170900
683,000000	0,171200
682,000000	0,172800
681,000000	0,176300
680,000000	0,175300
679,000000	0,178800
678,000000	0,182200
677,000000	0,183100
676,000000	0,184200
675,000000	0,188100
674,000000	0,187100
673,000000	0,190200
672,000000	0,194700
671,000000	0,195400
670,000000	0,197200
669,000000	0,204300
668,000000	0,206000
667,000000	0,209500
666,000000	0,214100
665,000000	0,218900
664,000000	0,222600
663,000000	0,225200
662,000000	0,230300
661,000000	0,235200
660,000000	0,238900
659,000000	0,245100
658,000000	0,248300
657,000000	0,250000
656,000000	0,252600
655,000000	0,257800
654,000000	0,259300
653,000000	0,262100
652,000000	0,264900
651,000000	0,268000
650,000000	0,270300
649,000000	0,274900
648,000000	0,278100
647,000000	0,282100
646,000000	0,285200
645,000000	0,290500
644,000000	0,292000
643,000000	0,295700
642,000000	0,299900
641,000000	0,303300
640,000000	0,305000
639,000000	0,309500
638,000000	0,312400
637,000000	0,314900
636,000000	0,317900
635,000000	0,319400
634,000000	0,322000
633,000000	0,324400
632,000000	0,324300
631,000000	0,328300
630,000000	0,329900
629,000000	0,331500
628,000000	0,335000
627,000000	0,334800
626,000000	0,336900
625,000000	0,341900
624,000000	0,343300
623,000000	0,344500
622,000000	0,347400
621,000000	0,348700
620,000000	0,350700
619,000000	0,354400
618,000000	0,355900
617,000000	0,358500
616,000000	0,358400
615,000000	0,360700
614,000000	0,364200
613,000000	0,365900
612,000000	0,367900
611,000000	0,371800
610,000000	0,372700
609,000000	0,373800
608,000000	0,376300
607,000000	0,378900
606,000000	0,380400
605,000000	0,382400
604,000000	0,383200
603,000000	0,382900
602,000000	0,383700
601,000000	0,387900
600,000000	0,389800
599,000000	0,389400
598,000000	0,390900
597,000000	0,391100
596,000000	0,391600
595,000000	0,393600
594,000000	0,395400
593,000000	0,395700
592,000000	0,395900
591,000000	0,396400
590,000000	0,397800
589,000000	0,398600
588,000000	0,399400
587,000000	0,400100
586,000000	0,398800
585,000000	0,397900
584,000000	0,399300
583,000000	0,400800
582,000000	0,400800
581,000000	0,400400
580,000000	0,399200
579,000000	0,398700
578,000000	0,400000
577,000000	0,401000
576,000000	0,398400
575,000000	0,397500
574,000000	0,396000
573,000000	0,394600
572,000000	0,393200
571,000000	0,392900
570,000000	0,391400
569,000000	0,387400
568,000000	0,383200
567,000000	0,380500
566,000000	0,376900
565,000000	0,373700
564,000000	0,368800
563,000000	0,362100
562,000000	0,354800
561,000000	0,342600
560,000000	0,332100
559,000000	0,334000
558,000000	0,335500
557,000000	0,336800
556,000000	0,339400
555,000000	0,340500
554,000000	0,340200
553,000000	0,337700
552,000000	0,339300
551,000000	0,339900
550,000000	0,338500
549,000000	0,339700
548,000000	0,336700
547,000000	0,334300
546,000000	0,334400
545,000000	0,334000
544,000000	0,333300
543,000000	0,331600
542,000000	0,328400
541,000000	0,325700
540,000000	0,323800
539,000000	0,323900
538,000000	0,322700
537,000000	0,318600
536,000000	0,314500
535,000000	0,312000
534,000000	0,309000
533,000000	0,308200
532,000000	0,306400
531,000000	0,300700
530,000000	0,295300
529,000000	0,292600
528,000000	0,289600
527,000000	0,286400
526,000000	0,283800
525,000000	0,280000
524,000000	0,273800
523,000000	0,267900
522,000000	0,264400
521,000000	0,262900
520,000000	0,259000
519,000000	0,254200
518,000000	0,247900
517,000000	0,241700
516,000000	0,239600
515,000000	0,236200
514,000000	0,231000
513,000000	0,226600
512,000000	0,221700
511,000000	0,216200
510,000000	0,212600
509,000000	0,209400
508,000000	0,206100
507,000000	0,201400
506,000000	0,196900
505,000000	0,194800
504,000000	0,191000
503,000000	0,187400
502,000000	0,185800
501,000000	0,183100
500,000000	0,179800
499,000000	0,177000
498,000000	0,178400
497,000000	0,177500
496,000000	0,176100
495,000000	0,176300
494,000000	0,177800
493,000000	0,174800
492,000000	0,177500
491,000000	0,180900
490,000000	0,181700
489,000000	0,184300
488,000000	0,189300
487,000000	0,190300
486,000000	0,195400
485,000000	0,200700
484,000000	0,206400
483,000000	0,212100
482,000000	0,218500
481,000000	0,217100
480,000000	0,217500
479,000000	0,215600
478,000000	0,214700
477,000000	0,214500
476,000000	0,212000
475,000000	0,207700
474,000000	0,209000
473,000000	0,206600
472,000000	0,204800
471,000000	0,203300
470,000000	0,202800
469,000000	0,197100
468,000000	0,196400
467,000000	0,193000
466,000000	0,190600
465,000000	0,188900
464,000000	0,189000
463,000000	0,182000
462,000000	0,180200
461,000000	0,177100
460,000000	0,175400
459,000000	0,170400
458,000000	0,169000
457,000000	0,168100
456,000000	0,163200
455,000000	0,158400
454,000000	0,157900
453,000000	0,156200
452,000000	0,154400
451,000000	0,148600
450,000000	0,148700
449,000000	0,144700
448,000000	0,142400
447,000000	0,140900
446,000000	0,138400
445,000000	0,133400
444,000000	0,136800
443,000000	0,134100
442,000000	0,132100
441,000000	0,132500
440,000000	0,132900
439,000000	0,127900
438,000000	0,128500
437,000000	0,127100
436,000000	0,127100
435,000000	0,125700
434,000000	0,125800
433,000000	0,123300
432,000000	0,121400
431,000000	0,120700
430,000000	0,124100
429,000000	0,122700
428,000000	0,121700
427,000000	0,120700
426,000000	0,121600
425,000000	0,117300
424,000000	0,120200
423,000000	0,119600
422,000000	0,117000
421,000000	0,118200
420,000000	0,114800
419,000000	0,113300
418,000000	0,113100
417,000000	0,112800
416,000000	0,111300
415,000000	0,107600
414,000000	0,107100
413,000000	0,108300
412,000000	0,106200
411,000000	0,106400
410,000000	0,104800
409,000000	0,102400
408,000000	0,099400
407,000000	0,101000
406,000000	0,099400
405,000000	0,097400
404,000000	0,096700
403,000000	0,096800
402,000000	0,092900
401,000000	0,088200
400,000000	0,090300
