PE UV       SUBTECH     SPECTRUM    ASCII       PEDS        4.00        
   -1
Sample5208.Sample.asc
23/11/29
22:46:06.00
23/11/29
22:46:06.00
Analyst

400,000000
1
Lambda 850
850N4111301
PerkinElmer UV WinLab 6.4.0.971 / 1.61.00 Lambda 800

0
0
2
0
0
VIS
1
1
1
RBeamAtt,SBeamAtt,150mm sphere / downward view
0
0
0
0
Fix
 
0
0,2
0
30
0
 
 
 
0
 
0
150
0
Front
100
 
S:100 R:100
 
0
0
0
 
0
 
 
 
0
 
 
0
0
0
0
0
 
 
 
 
0
0


0
0
#HDR
-1
-1
#GR
nm
EGY
1.0
0.0
700,000000
-1,000000
301
8
0,556400
0,184500
#DATA
700,000000	0,224200
699,000000	0,226900
698,000000	0,228600
697,000000	0,226200
696,000000	0,230800
695,000000	0,234300
694,000000	0,235300
693,000000	0,239300
692,000000	0,241300
691,000000	0,239300
690,000000	0,243800
689,000000	0,260500
688,000000	0,265700
687,000000	0,265200
686,000000	0,271400
685,000000	0,276400
684,000000	0,279600
683,000000	0,284500
682,000000	0,288100
681,000000	0,290400
680,000000	0,296600
679,000000	0,298300
678,000000	0,304000
677,000000	0,306400
676,000000	0,307500
675,000000	0,310800
674,000000	0,315000
673,000000	0,318300
672,000000	0,323300
671,000000	0,326300
670,000000	0,328600
669,000000	0,330500
668,000000	0,334300
667,000000	0,339100
666,000000	0,342700
665,000000	0,346800
664,000000	0,350500
663,000000	0,350900
662,000000	0,354900
661,000000	0,361200
660,000000	0,364000
659,000000	0,366300
658,000000	0,370700
657,000000	0,372600
656,000000	0,374900
655,000000	0,381600
654,000000	0,384900
653,000000	0,388100
652,000000	0,391600
651,000000	0,392200
650,000000	0,396300
649,000000	0,401500
648,000000	0,406100
647,000000	0,409600
646,000000	0,410500
645,000000	0,412800
644,000000	0,417500
643,000000	0,422500
642,000000	0,424600
641,000000	0,429700
640,000000	0,433000
639,000000	0,433100
638,000000	0,437400
637,000000	0,442500
636,000000	0,446100
635,000000	0,449100
634,000000	0,452000
633,000000	0,453500
632,000000	0,457000
631,000000	0,462200
630,000000	0,465800
629,000000	0,467500
628,000000	0,471600
627,000000	0,474000
626,000000	0,476700
625,000000	0,480000
624,000000	0,484700
623,000000	0,487400
622,000000	0,489100
621,000000	0,489800
620,000000	0,494100
619,000000	0,497900
618,000000	0,499900
617,000000	0,503900
616,000000	0,505400
615,000000	0,506800
614,000000	0,510900
613,000000	0,514900
612,000000	0,515700
611,000000	0,519600
610,000000	0,521800
609,000000	0,520900
608,000000	0,523900
607,000000	0,528800
606,000000	0,530300
605,000000	0,531900
604,000000	0,532800
603,000000	0,533900
602,000000	0,536400
601,000000	0,538300
600,000000	0,540500
599,000000	0,542300
598,000000	0,542700
597,000000	0,543800
596,000000	0,545100
595,000000	0,546700
594,000000	0,549600
593,000000	0,551000
592,000000	0,550200
591,000000	0,549200
590,000000	0,551800
589,000000	0,553800
588,000000	0,553400
587,000000	0,554000
586,000000	0,553500
585,000000	0,552600
584,000000	0,555300
583,000000	0,556400
582,000000	0,555100
581,000000	0,555400
580,000000	0,555100
579,000000	0,552100
578,000000	0,552400
577,000000	0,553300
576,000000	0,552700
575,000000	0,550300
574,000000	0,546900
573,000000	0,544400
572,000000	0,543100
571,000000	0,541100
570,000000	0,538300
569,000000	0,535200
568,000000	0,528800
567,000000	0,523600
566,000000	0,520600
565,000000	0,514500
564,000000	0,508300
563,000000	0,501400
562,000000	0,490900
561,000000	0,472300
560,000000	0,458200
559,000000	0,459300
558,000000	0,461500
557,000000	0,463900
556,000000	0,465200
555,000000	0,466700
554,000000	0,466500
553,000000	0,464700
552,000000	0,465500
551,000000	0,466800
550,000000	0,466200
549,000000	0,466900
548,000000	0,466700
547,000000	0,463600
546,000000	0,461300
545,000000	0,461600
544,000000	0,460800
543,000000	0,458700
542,000000	0,456900
541,000000	0,453700
540,000000	0,450300
539,000000	0,448400
538,000000	0,447100
537,000000	0,444200
536,000000	0,440700
535,000000	0,436800
534,000000	0,433000
533,000000	0,429100
532,000000	0,425800
531,000000	0,422300
530,000000	0,417600
529,000000	0,411500
528,000000	0,407100
527,000000	0,404400
526,000000	0,399800
525,000000	0,395700
524,000000	0,391700
523,000000	0,384900
522,000000	0,379400
521,000000	0,377000
520,000000	0,371600
519,000000	0,366300
518,000000	0,363300
517,000000	0,357100
516,000000	0,350400
515,000000	0,347300
514,000000	0,344200
513,000000	0,340500
512,000000	0,335700
511,000000	0,329300
510,000000	0,326400
509,000000	0,323400
508,000000	0,320600
507,000000	0,317900
506,000000	0,314200
505,000000	0,311200
504,000000	0,309200
503,000000	0,307100
502,000000	0,306700
501,000000	0,307300
500,000000	0,306400
499,000000	0,304500
498,000000	0,304700
497,000000	0,307500
496,000000	0,309500
495,000000	0,311200
494,000000	0,315200
493,000000	0,318600
492,000000	0,321300
491,000000	0,328900
490,000000	0,336100
489,000000	0,343200
488,000000	0,351900
487,000000	0,360500
486,000000	0,368200
485,000000	0,381100
484,000000	0,394100
483,000000	0,405800
482,000000	0,411400
481,000000	0,414300
480,000000	0,414100
479,000000	0,411100
478,000000	0,408000
477,000000	0,406600
476,000000	0,403300
475,000000	0,398100
474,000000	0,395700
473,000000	0,394400
472,000000	0,392500
471,000000	0,389700
470,000000	0,386900
469,000000	0,380300
468,000000	0,376200
467,000000	0,374100
466,000000	0,371000
465,000000	0,365900
464,000000	0,362400
463,000000	0,356500
462,000000	0,351700
461,000000	0,348200
460,000000	0,345300
459,000000	0,341000
458,000000	0,336600
457,000000	0,332500
456,000000	0,328300
455,000000	0,325900
454,000000	0,324100
453,000000	0,321800
452,000000	0,317700
451,000000	0,313200
450,000000	0,311100
449,000000	0,309800
448,000000	0,306100
447,000000	0,304800
446,000000	0,303300
445,000000	0,300200
444,000000	0,299500
443,000000	0,303000
442,000000	0,302800
441,000000	0,301800
440,000000	0,301000
439,000000	0,297900
438,000000	0,297500
437,000000	0,296500
436,000000	0,295700
435,000000	0,292600
434,000000	0,290800
433,000000	0,289000
432,000000	0,285700
431,000000	0,284400
430,000000	0,284100
429,000000	0,282300
428,000000	0,278500
427,000000	0,275700
426,000000	0,272700
425,000000	0,271500
424,000000	0,269600
423,000000	0,268100
422,000000	0,264000
421,000000	0,259300
420,000000	0,257600
419,000000	0,257600
418,000000	0,254100
417,000000	0,249600
416,000000	0,248900
415,000000	0,241700
414,000000	0,238600
413,000000	0,237900
412,000000	0,233800
411,000000	0,229300
410,000000	0,226200
409,000000	0,221100
408,000000	0,216400
407,000000	0,213400
406,000000	0,211500
405,000000	0,207000
404,000000	0,201300
403,000000	0,196200
402,000000	0,192600
401,000000	0,188700
400,000000	0,184500
