PE UV       SUBTECH     SPECTRUM    ASCII       PEDS        4.00        
   -1
Sample5213.Sample.asc
23/11/29
23:13:38.00
23/11/29
23:13:38.00
Analyst

400,000000
1
Lambda 850
850N4111301
PerkinElmer UV WinLab 6.4.0.971 / 1.61.00 Lambda 800

0
0
2
0
0
VIS
1
1
1
RBeamAtt,SBeamAtt,150mm sphere / downward view
0
0
0
0
Fix
 
0
0,2
0
30
0
 
 
 
0
 
0
150
0
Front
100
 
S:100 R:100
 
0
0
0
 
0
 
 
 
0
 
 
0
0
0
0
0
 
 
 
 
0
0


0
0
#HDR
-1
-1
#GR
nm
EGY
1.0
0.0
700,000000
-1,000000
301
8
0,486000
0,139100
#DATA
700,000000	0,193800
699,000000	0,196300
698,000000	0,197300
697,000000	0,197800
696,000000	0,196400
695,000000	0,200000
694,000000	0,201700
693,000000	0,199500
692,000000	0,200400
691,000000	0,202200
690,000000	0,202700
689,000000	0,214800
688,000000	0,214500
687,000000	0,218900
686,000000	0,220100
685,000000	0,221600
684,000000	0,225100
683,000000	0,227500
682,000000	0,229300
681,000000	0,233800
680,000000	0,234500
679,000000	0,237400
678,000000	0,240700
677,000000	0,244200
676,000000	0,247400
675,000000	0,249900
674,000000	0,250800
673,000000	0,257100
672,000000	0,257900
671,000000	0,259900
670,000000	0,264900
669,000000	0,269300
668,000000	0,269500
667,000000	0,274800
666,000000	0,279100
665,000000	0,282500
664,000000	0,286000
663,000000	0,289200
662,000000	0,294300
661,000000	0,298100
660,000000	0,303500
659,000000	0,308500
658,000000	0,308600
657,000000	0,312200
656,000000	0,317500
655,000000	0,320100
654,000000	0,323700
653,000000	0,327800
652,000000	0,329700
651,000000	0,330600
650,000000	0,333600
649,000000	0,340300
648,000000	0,342600
647,000000	0,345500
646,000000	0,350100
645,000000	0,351600
644,000000	0,354100
643,000000	0,361600
642,000000	0,365400
641,000000	0,367300
640,000000	0,371300
639,000000	0,373400
638,000000	0,375100
637,000000	0,380400
636,000000	0,383600
635,000000	0,387100
634,000000	0,388600
633,000000	0,390300
632,000000	0,394600
631,000000	0,397700
630,000000	0,399600
629,000000	0,403300
628,000000	0,405200
627,000000	0,407900
626,000000	0,410700
625,000000	0,414100
624,000000	0,415700
623,000000	0,419600
622,000000	0,423200
621,000000	0,423700
620,000000	0,425300
619,000000	0,430000
618,000000	0,432600
617,000000	0,434300
616,000000	0,437000
615,000000	0,439300
614,000000	0,440700
613,000000	0,444400
612,000000	0,447900
611,000000	0,448100
610,000000	0,448600
609,000000	0,452100
608,000000	0,454400
607,000000	0,457600
606,000000	0,460500
605,000000	0,462800
604,000000	0,463300
603,000000	0,463900
602,000000	0,467000
601,000000	0,469500
600,000000	0,470200
599,000000	0,471000
598,000000	0,471000
597,000000	0,472000
596,000000	0,473700
595,000000	0,477700
594,000000	0,478100
593,000000	0,479100
592,000000	0,479900
591,000000	0,479300
590,000000	0,479800
589,000000	0,482900
588,000000	0,484400
587,000000	0,483500
586,000000	0,482400
585,000000	0,484200
584,000000	0,485100
583,000000	0,484800
582,000000	0,486000
581,000000	0,485300
580,000000	0,482000
579,000000	0,483000
578,000000	0,483400
577,000000	0,483300
576,000000	0,483400
575,000000	0,482300
574,000000	0,479100
573,000000	0,476500
572,000000	0,475800
571,000000	0,475900
570,000000	0,472700
569,000000	0,467800
568,000000	0,464200
567,000000	0,459800
566,000000	0,455400
565,000000	0,451700
564,000000	0,445500
563,000000	0,437700
562,000000	0,428900
561,000000	0,413600
560,000000	0,403200
559,000000	0,403700
558,000000	0,405300
557,000000	0,407700
556,000000	0,408300
555,000000	0,409400
554,000000	0,408500
553,000000	0,408000
552,000000	0,407800
551,000000	0,408900
550,000000	0,411100
549,000000	0,410200
548,000000	0,409200
547,000000	0,407200
546,000000	0,406800
545,000000	0,405600
544,000000	0,403200
543,000000	0,403300
542,000000	0,399800
541,000000	0,396100
540,000000	0,393800
539,000000	0,393100
538,000000	0,391500
537,000000	0,388300
536,000000	0,387300
535,000000	0,381300
534,000000	0,378400
533,000000	0,376500
532,000000	0,371400
531,000000	0,368000
530,000000	0,363500
529,000000	0,358900
528,000000	0,353700
527,000000	0,351900
526,000000	0,349500
525,000000	0,344200
524,000000	0,340000
523,000000	0,334200
522,000000	0,329600
521,000000	0,323700
520,000000	0,319700
519,000000	0,316200
518,000000	0,309700
517,000000	0,304900
516,000000	0,300100
515,000000	0,297400
514,000000	0,293600
513,000000	0,289100
512,000000	0,284900
511,000000	0,279000
510,000000	0,275100
509,000000	0,271800
508,000000	0,268700
507,000000	0,265200
506,000000	0,261800
505,000000	0,256800
504,000000	0,253400
503,000000	0,253300
502,000000	0,252200
501,000000	0,249700
500,000000	0,249800
499,000000	0,246800
498,000000	0,246100
497,000000	0,247800
496,000000	0,249600
495,000000	0,251100
494,000000	0,251700
493,000000	0,252400
492,000000	0,258500
491,000000	0,261200
490,000000	0,265800
489,000000	0,273200
488,000000	0,278200
487,000000	0,283500
486,000000	0,292700
485,000000	0,299900
484,000000	0,309500
483,000000	0,319100
482,000000	0,326000
481,000000	0,324500
480,000000	0,324600
479,000000	0,324300
478,000000	0,322000
477,000000	0,318300
476,000000	0,317200
475,000000	0,313300
474,000000	0,312100
473,000000	0,308500
472,000000	0,306800
471,000000	0,304000
470,000000	0,301100
469,000000	0,299500
468,000000	0,294400
467,000000	0,289100
466,000000	0,288600
465,000000	0,286400
464,000000	0,282200
463,000000	0,275500
462,000000	0,275600
461,000000	0,270700
460,000000	0,265600
459,000000	0,265100
458,000000	0,261400
457,000000	0,258500
456,000000	0,253500
455,000000	0,249200
454,000000	0,249300
453,000000	0,246000
452,000000	0,243400
451,000000	0,236800
450,000000	0,236300
449,000000	0,232900
448,000000	0,231100
447,000000	0,227800
446,000000	0,225800
445,000000	0,224900
444,000000	0,223400
443,000000	0,219800
442,000000	0,222700
441,000000	0,222300
440,000000	0,221700
439,000000	0,219000
438,000000	0,217300
437,000000	0,214200
436,000000	0,216000
435,000000	0,215600
434,000000	0,213800
433,000000	0,210100
432,000000	0,211900
431,000000	0,209600
430,000000	0,208600
429,000000	0,207500
428,000000	0,206700
427,000000	0,206500
426,000000	0,200500
425,000000	0,199900
424,000000	0,200800
423,000000	0,197100
422,000000	0,194500
421,000000	0,191300
420,000000	0,189400
419,000000	0,186500
418,000000	0,186400
417,000000	0,186600
416,000000	0,181100
415,000000	0,182900
414,000000	0,178300
413,000000	0,172200
412,000000	0,173900
411,000000	0,172600
410,000000	0,166600
409,000000	0,163200
408,000000	0,161300
407,000000	0,157100
406,000000	0,157500
405,000000	0,155300
404,000000	0,151200
403,000000	0,151000
402,000000	0,143100
401,000000	0,140300
400,000000	0,139100
