PE UV       SUBTECH     SPECTRUM    ASCII       PEDS        4.00        
   -1
Sample5209.Sample.asc
23/11/29
22:48:28.00
23/11/29
22:48:28.00
Analyst

400,000000
1
Lambda 850
850N4111301
PerkinElmer UV WinLab 6.4.0.971 / 1.61.00 Lambda 800

0
0
2
0
0
VIS
1
1
1
RBeamAtt,SBeamAtt,150mm sphere / downward view
0
0
0
0
Fix
 
0
0,2
0
30
0
 
 
 
0
 
0
150
0
Front
100
 
S:100 R:100
 
0
0
0
 
0
 
 
 
0
 
 
0
0
0
0
0
 
 
 
 
0
0


0
0
#HDR
-1
-1
#GR
nm
EGY
1.0
0.0
700,000000
-1,000000
301
8
0,512000
0,164400
#DATA
700,000000	0,204700
699,000000	0,207600
698,000000	0,207700
697,000000	0,208500
696,000000	0,210100
695,000000	0,214900
694,000000	0,215500
693,000000	0,216600
692,000000	0,219500
691,000000	0,222200
690,000000	0,221800
689,000000	0,237600
688,000000	0,241900
687,000000	0,248900
686,000000	0,247300
685,000000	0,254100
684,000000	0,257200
683,000000	0,260400
682,000000	0,262700
681,000000	0,267000
680,000000	0,271400
679,000000	0,273000
678,000000	0,277300
677,000000	0,281000
676,000000	0,282300
675,000000	0,287000
674,000000	0,288700
673,000000	0,292200
672,000000	0,294300
671,000000	0,299800
670,000000	0,301800
669,000000	0,303900
668,000000	0,307000
667,000000	0,312100
666,000000	0,314700
665,000000	0,316600
664,000000	0,319000
663,000000	0,322200
662,000000	0,326600
661,000000	0,330100
660,000000	0,334200
659,000000	0,336000
658,000000	0,338700
657,000000	0,345100
656,000000	0,345000
655,000000	0,348300
654,000000	0,353100
653,000000	0,355900
652,000000	0,358300
651,000000	0,361800
650,000000	0,363500
649,000000	0,368500
648,000000	0,371100
647,000000	0,374600
646,000000	0,377700
645,000000	0,381100
644,000000	0,383600
643,000000	0,388200
642,000000	0,390400
641,000000	0,395300
640,000000	0,397900
639,000000	0,398200
638,000000	0,401100
637,000000	0,406600
636,000000	0,408500
635,000000	0,411600
634,000000	0,414600
633,000000	0,419200
632,000000	0,420000
631,000000	0,423200
630,000000	0,427000
629,000000	0,430700
628,000000	0,431800
627,000000	0,434900
626,000000	0,438700
625,000000	0,440500
624,000000	0,444200
623,000000	0,447700
622,000000	0,449100
621,000000	0,451100
620,000000	0,454300
619,000000	0,458100
618,000000	0,459600
617,000000	0,461600
616,000000	0,463600
615,000000	0,464800
614,000000	0,466900
613,000000	0,472300
612,000000	0,474200
611,000000	0,476400
610,000000	0,479100
609,000000	0,480200
608,000000	0,481800
607,000000	0,485300
606,000000	0,487900
605,000000	0,488600
604,000000	0,489700
603,000000	0,491400
602,000000	0,493500
601,000000	0,495800
600,000000	0,496800
599,000000	0,497700
598,000000	0,496600
597,000000	0,498600
596,000000	0,501100
595,000000	0,502600
594,000000	0,503500
593,000000	0,504700
592,000000	0,503900
591,000000	0,505100
590,000000	0,507200
589,000000	0,510300
588,000000	0,509800
587,000000	0,509900
586,000000	0,510400
585,000000	0,509600
584,000000	0,509900
583,000000	0,511600
582,000000	0,512000
581,000000	0,509800
580,000000	0,507600
579,000000	0,508500
578,000000	0,508200
577,000000	0,509800
576,000000	0,509300
575,000000	0,506500
574,000000	0,503000
573,000000	0,502100
572,000000	0,501200
571,000000	0,498000
570,000000	0,494700
569,000000	0,491400
568,000000	0,486400
567,000000	0,481800
566,000000	0,478700
565,000000	0,474400
564,000000	0,467500
563,000000	0,460100
562,000000	0,451000
561,000000	0,434300
560,000000	0,421400
559,000000	0,422000
558,000000	0,423100
557,000000	0,425800
556,000000	0,426900
555,000000	0,427300
554,000000	0,427200
553,000000	0,426000
552,000000	0,426300
551,000000	0,428400
550,000000	0,429100
549,000000	0,427900
548,000000	0,426800
547,000000	0,424900
546,000000	0,423000
545,000000	0,422700
544,000000	0,423500
543,000000	0,422000
542,000000	0,419600
541,000000	0,416000
540,000000	0,413800
539,000000	0,411600
538,000000	0,410000
537,000000	0,408000
536,000000	0,402300
535,000000	0,398500
534,000000	0,396100
533,000000	0,393600
532,000000	0,390900
531,000000	0,387600
530,000000	0,381800
529,000000	0,376800
528,000000	0,373400
527,000000	0,371800
526,000000	0,368500
525,000000	0,363200
524,000000	0,356800
523,000000	0,351700
522,000000	0,347000
521,000000	0,345100
520,000000	0,342100
519,000000	0,336800
518,000000	0,330800
517,000000	0,326400
516,000000	0,320900
515,000000	0,319200
514,000000	0,316500
513,000000	0,311600
512,000000	0,305300
511,000000	0,300600
510,000000	0,298900
509,000000	0,296400
508,000000	0,292600
507,000000	0,291200
506,000000	0,288300
505,000000	0,282800
504,000000	0,282800
503,000000	0,281300
502,000000	0,279600
501,000000	0,280700
500,000000	0,280300
499,000000	0,279300
498,000000	0,279500
497,000000	0,281500
496,000000	0,282900
495,000000	0,284500
494,000000	0,287300
493,000000	0,290600
492,000000	0,294700
491,000000	0,300600
490,000000	0,307100
489,000000	0,313800
488,000000	0,320300
487,000000	0,329400
486,000000	0,337700
485,000000	0,347300
484,000000	0,359500
483,000000	0,370500
482,000000	0,375600
481,000000	0,379800
480,000000	0,378000
479,000000	0,373900
478,000000	0,371700
477,000000	0,369400
476,000000	0,367100
475,000000	0,365400
474,000000	0,361100
473,000000	0,357000
472,000000	0,355700
471,000000	0,353300
470,000000	0,352400
469,000000	0,345300
468,000000	0,342700
467,000000	0,340100
466,000000	0,336600
465,000000	0,332700
464,000000	0,330100
463,000000	0,322200
462,000000	0,320900
461,000000	0,314600
460,000000	0,312900
459,000000	0,309900
458,000000	0,306600
457,000000	0,299400
456,000000	0,298800
455,000000	0,294600
454,000000	0,291800
453,000000	0,290300
452,000000	0,287100
451,000000	0,283800
450,000000	0,281200
449,000000	0,279200
448,000000	0,276700
447,000000	0,273700
446,000000	0,274500
445,000000	0,269900
444,000000	0,271900
443,000000	0,271800
442,000000	0,274500
441,000000	0,271600
440,000000	0,271200
439,000000	0,269800
438,000000	0,267000
437,000000	0,262700
436,000000	0,266400
435,000000	0,263900
434,000000	0,261900
433,000000	0,259500
432,000000	0,258100
431,000000	0,252800
430,000000	0,253800
429,000000	0,253400
428,000000	0,250000
427,000000	0,249400
426,000000	0,246100
425,000000	0,241900
424,000000	0,241400
423,000000	0,240000
422,000000	0,237300
421,000000	0,231800
420,000000	0,231300
419,000000	0,228500
418,000000	0,226900
417,000000	0,223100
416,000000	0,220600
415,000000	0,220400
414,000000	0,213300
413,000000	0,210000
412,000000	0,209800
411,000000	0,205800
410,000000	0,199900
409,000000	0,196800
408,000000	0,192700
407,000000	0,188700
406,000000	0,186300
405,000000	0,183100
404,000000	0,179000
403,000000	0,172700
402,000000	0,171500
401,000000	0,166900
400,000000	0,164400
