PE UV       SUBTECH     SPECTRUM    ASCII       PEDS        4.00        
   -1
Sample4809.Sample.asc
23/09/01
00:09:52.00
23/09/01
00:09:52.00
Analyst

350,000000
1
Lambda 850
850N4111301
PerkinElmer UV WinLab 6.4.0.971 / 1.61.00 Lambda 800

0
0
2
0
0
VIS
1
1
1
RBeamAtt,SBeamAtt,150mm sphere / downward view
0
0
0
0
Fix
 
0
0,2
0
30
0
 
 
 
0
 
0
150
0
Front
100
 
S:100 R:100
 
0
0
0
 
0
 
 
 
0
 
 
0
0
0
0
0
 
 
 
 
0
0


0
0
#HDR
-1
-1
#GR
nm
EGY
1.0
0.0
850,000000
-1,000000
501
8
0,560400
0,007100
#DATA
850,000000	0,008200
849,000000	0,007100
848,000000	0,009500
847,000000	0,008900
846,000000	0,011300
845,000000	0,012400
844,000000	0,012900
843,000000	0,016100
842,000000	0,015400
841,000000	0,016900
840,000000	0,020200
839,000000	0,020000
838,000000	0,020900
837,000000	0,026300
836,000000	0,024200
835,000000	0,026100
834,000000	0,030600
833,000000	0,031800
832,000000	0,034100
831,000000	0,033500
830,000000	0,035400
829,000000	0,040700
828,000000	0,037700
827,000000	0,040400
826,000000	0,043800
825,000000	0,043200
824,000000	0,045500
823,000000	0,048100
822,000000	0,047900
821,000000	0,048500
820,000000	0,051900
819,000000	0,051800
818,000000	0,051900
817,000000	0,053400
816,000000	0,054400
815,000000	0,054600
814,000000	0,055800
813,000000	0,056500
812,000000	0,058600
811,000000	0,056800
810,000000	0,058800
809,000000	0,066300
808,000000	0,066700
807,000000	0,067000
806,000000	0,067500
805,000000	0,071900
804,000000	0,069900
803,000000	0,071200
802,000000	0,072900
801,000000	0,073900
800,000000	0,072400
799,000000	0,074600
798,000000	0,077700
797,000000	0,076100
796,000000	0,076700
795,000000	0,080600
794,000000	0,079100
793,000000	0,079300
792,000000	0,082500
791,000000	0,085200
790,000000	0,081500
789,000000	0,082300
788,000000	0,085800
787,000000	0,086600
786,000000	0,086200
785,000000	0,088100
784,000000	0,090400
783,000000	0,089100
782,000000	0,089600
781,000000	0,093800
780,000000	0,093200
779,000000	0,092200
778,000000	0,095200
777,000000	0,096900
776,000000	0,095100
775,000000	0,098200
774,000000	0,100600
773,000000	0,099000
772,000000	0,101100
771,000000	0,102800
770,000000	0,102900
769,000000	0,104500
768,000000	0,105000
767,000000	0,107700
766,000000	0,106400
765,000000	0,108000
764,000000	0,109000
763,000000	0,110900
762,000000	0,110900
761,000000	0,113500
760,000000	0,114800
759,000000	0,114000
758,000000	0,117500
757,000000	0,119700
756,000000	0,120200
755,000000	0,121600
754,000000	0,122000
753,000000	0,124000
752,000000	0,124800
751,000000	0,125900
750,000000	0,128200
749,000000	0,128400
748,000000	0,129000
747,000000	0,131500
746,000000	0,131100
745,000000	0,135800
744,000000	0,137400
743,000000	0,138600
742,000000	0,138200
741,000000	0,140300
740,000000	0,142400
739,000000	0,144700
738,000000	0,146400
737,000000	0,148700
736,000000	0,148300
735,000000	0,149800
734,000000	0,151200
733,000000	0,155100
732,000000	0,157300
731,000000	0,157900
730,000000	0,159100
729,000000	0,159700
728,000000	0,161800
727,000000	0,167400
726,000000	0,169000
725,000000	0,169000
724,000000	0,171600
723,000000	0,173700
722,000000	0,175200
721,000000	0,179400
720,000000	0,182500
719,000000	0,182500
718,000000	0,183600
717,000000	0,186400
716,000000	0,189800
715,000000	0,193900
714,000000	0,197100
713,000000	0,197200
712,000000	0,198700
711,000000	0,201100
710,000000	0,203800
709,000000	0,208000
708,000000	0,209300
707,000000	0,210100
706,000000	0,212100
705,000000	0,213400
704,000000	0,215800
703,000000	0,220600
702,000000	0,222400
701,000000	0,222200
700,000000	0,223700
699,000000	0,225800
698,000000	0,228600
697,000000	0,232900
696,000000	0,235300
695,000000	0,235100
694,000000	0,236400
693,000000	0,238900
692,000000	0,240900
691,000000	0,244000
690,000000	0,247000
689,000000	0,257700
688,000000	0,266800
687,000000	0,269300
686,000000	0,273600
685,000000	0,279200
684,000000	0,283700
683,000000	0,288500
682,000000	0,291700
681,000000	0,296100
680,000000	0,299300
679,000000	0,305100
678,000000	0,309900
677,000000	0,312200
676,000000	0,313100
675,000000	0,317000
674,000000	0,320500
673,000000	0,324200
672,000000	0,328700
671,000000	0,332100
670,000000	0,333100
669,000000	0,336600
668,000000	0,340800
667,000000	0,344100
666,000000	0,349100
665,000000	0,353400
664,000000	0,355100
663,000000	0,355800
662,000000	0,361000
661,000000	0,367400
660,000000	0,371100
659,000000	0,373600
658,000000	0,375300
657,000000	0,377900
656,000000	0,381500
655,000000	0,387400
654,000000	0,392100
653,000000	0,394000
652,000000	0,396200
651,000000	0,398900
650,000000	0,403500
649,000000	0,408800
648,000000	0,413200
647,000000	0,416300
646,000000	0,416800
645,000000	0,420300
644,000000	0,424700
643,000000	0,428200
642,000000	0,433700
641,000000	0,436800
640,000000	0,438200
639,000000	0,440100
638,000000	0,444500
637,000000	0,450500
636,000000	0,452900
635,000000	0,458000
634,000000	0,458800
633,000000	0,460500
632,000000	0,464900
631,000000	0,470100
630,000000	0,473200
629,000000	0,477100
628,000000	0,478600
627,000000	0,479500
626,000000	0,483000
625,000000	0,490000
624,000000	0,491700
623,000000	0,494500
622,000000	0,496600
621,000000	0,497200
620,000000	0,500700
619,000000	0,507100
618,000000	0,509000
617,000000	0,512000
616,000000	0,514000
615,000000	0,513100
614,000000	0,519700
613,000000	0,522600
612,000000	0,523300
611,000000	0,526200
610,000000	0,526900
609,000000	0,528800
608,000000	0,529500
607,000000	0,535800
606,000000	0,537200
605,000000	0,539300
604,000000	0,542300
603,000000	0,539500
602,000000	0,544700
601,000000	0,544500
600,000000	0,549300
599,000000	0,548500
598,000000	0,550000
597,000000	0,551400
596,000000	0,552000
595,000000	0,552100
594,000000	0,555400
593,000000	0,555300
592,000000	0,556300
591,000000	0,554600
590,000000	0,556800
589,000000	0,556900
588,000000	0,558200
587,000000	0,558400
586,000000	0,559800
585,000000	0,555200
584,000000	0,559700
583,000000	0,560400
582,000000	0,557100
581,000000	0,558900
580,000000	0,555100
579,000000	0,553700
578,000000	0,553000
577,000000	0,554300
576,000000	0,553600
575,000000	0,552100
574,000000	0,544900
573,000000	0,544900
572,000000	0,540800
571,000000	0,540600
570,000000	0,536500
569,000000	0,534100
568,000000	0,527500
567,000000	0,520900
566,000000	0,517500
565,000000	0,508900
564,000000	0,502200
563,000000	0,496600
562,000000	0,485100
561,000000	0,456500
560,000000	0,460300
559,000000	0,457700
558,000000	0,463300
557,000000	0,461200
556,000000	0,462500
555,000000	0,466600
554,000000	0,465800
553,000000	0,461000
552,000000	0,466400
551,000000	0,465600
550,000000	0,463100
549,000000	0,464600
548,000000	0,462600
547,000000	0,461500
546,000000	0,459900
545,000000	0,458200
544,000000	0,456600
543,000000	0,453700
542,000000	0,455500
541,000000	0,451600
540,000000	0,443900
539,000000	0,447600
538,000000	0,441900
537,000000	0,439600
536,000000	0,434900
535,000000	0,433400
534,000000	0,427400
533,000000	0,425400
532,000000	0,420100
531,000000	0,417600
530,000000	0,414000
529,000000	0,409100
528,000000	0,403400
527,000000	0,400200
526,000000	0,395300
525,000000	0,393500
524,000000	0,389500
523,000000	0,382300
522,000000	0,375700
521,000000	0,376000
520,000000	0,368500
519,000000	0,363700
518,000000	0,361300
517,000000	0,356400
516,000000	0,350200
515,000000	0,347500
514,000000	0,343000
513,000000	0,340100
512,000000	0,335700
511,000000	0,332100
510,000000	0,325300
509,000000	0,325300
508,000000	0,323200
507,000000	0,320500
506,000000	0,317000
505,000000	0,314900
504,000000	0,315400
503,000000	0,310300
502,000000	0,307500
501,000000	0,311500
500,000000	0,311000
499,000000	0,310600
498,000000	0,312800
497,000000	0,312900
496,000000	0,313100
495,000000	0,318700
494,000000	0,323200
493,000000	0,326500
492,000000	0,332600
491,000000	0,337900
490,000000	0,343400
489,000000	0,352800
488,000000	0,362700
487,000000	0,371900
486,000000	0,381300
485,000000	0,389000
484,000000	0,399400
483,000000	0,412700
482,000000	0,418700
481,000000	0,420800
480,000000	0,420100
479,000000	0,413600
478,000000	0,408800
477,000000	0,408300
476,000000	0,405100
475,000000	0,401100
474,000000	0,400700
473,000000	0,394300
472,000000	0,389800
471,000000	0,389800
470,000000	0,386400
469,000000	0,382700
468,000000	0,377400
467,000000	0,372500
466,000000	0,367100
465,000000	0,364500
464,000000	0,361100
463,000000	0,356000
462,000000	0,352800
461,000000	0,345200
460,000000	0,342400
459,000000	0,339500
458,000000	0,337000
457,000000	0,333700
456,000000	0,329200
455,000000	0,324500
454,000000	0,320900
453,000000	0,322000
452,000000	0,318700
451,000000	0,315100
450,000000	0,314400
449,000000	0,308000
448,000000	0,304700
447,000000	0,305500
446,000000	0,303400
445,000000	0,302700
444,000000	0,302800
443,000000	0,301800
442,000000	0,300200
441,000000	0,303100
440,000000	0,301500
439,000000	0,300600
438,000000	0,298400
437,000000	0,295100
436,000000	0,294300
435,000000	0,293100
434,000000	0,291400
433,000000	0,290200
432,000000	0,287300
431,000000	0,284500
430,000000	0,283200
429,000000	0,281900
428,000000	0,278700
427,000000	0,275800
426,000000	0,271800
425,000000	0,268600
424,000000	0,267000
423,000000	0,267100
422,000000	0,263300
421,000000	0,260200
420,000000	0,257900
419,000000	0,252400
418,000000	0,250000
417,000000	0,248900
416,000000	0,245900
415,000000	0,242400
414,000000	0,237900
413,000000	0,234800
412,000000	0,231900
411,000000	0,228100
410,000000	0,223700
409,000000	0,221100
408,000000	0,215800
407,000000	0,210900
406,000000	0,209300
405,000000	0,204900
404,000000	0,198900
403,000000	0,195900
402,000000	0,189800
401,000000	0,184000
400,000000	0,182900
399,000000	0,180200
398,000000	0,174800
397,000000	0,170000
396,000000	0,165100
395,000000	0,161300
394,000000	0,158500
393,000000	0,155800
392,000000	0,151900
391,000000	0,147200
390,000000	0,143700
389,000000	0,140300
388,000000	0,137700
387,000000	0,136500
386,000000	0,132600
385,000000	0,129500
384,000000	0,124800
383,000000	0,121200
382,000000	0,120000
381,000000	0,118100
380,000000	0,113100
379,000000	0,109800
378,000000	0,053000
377,000000	0,009900
376,000000	0,010400
375,000000	0,012300
374,000000	0,013400
373,000000	0,016300
372,000000	0,017300
371,000000	0,017100
370,000000	0,017200
369,000000	0,016400
368,000000	0,017900
367,000000	0,018700
366,000000	0,019200
365,000000	0,019900
364,000000	0,020300
363,000000	0,020200
362,000000	0,016500
361,000000	0,017900
360,000000	0,020200
359,000000	0,017700
358,000000	0,018300
357,000000	0,018600
356,000000	0,014100
355,000000	0,014800
354,000000	0,017800
353,000000	0,013500
352,000000	0,012100
351,000000	0,012400
350,000000	0,011200
