PE UV       SUBTECH     SPECTRUM    ASCII       PEDS        4.00        
   -1
Sample4804.Sample.asc
23/08/31
23:44:07.00
23/08/31
23:44:07.00
Analyst

350,000000
1
Lambda 850
850N4111301
PerkinElmer UV WinLab 6.4.0.971 / 1.61.00 Lambda 800

0
0
2
0
0
VIS
1
1
1
RBeamAtt,SBeamAtt,150mm sphere / downward view
0
0
0
0
Fix
 
0
0,2
0
30
0
 
 
 
0
 
0
150
0
Front
100
 
S:100 R:100
 
0
0
0
 
0
 
 
 
0
 
 
0
0
0
0
0
 
 
 
 
0
0


0
0
#HDR
-1
-1
#GR
nm
EGY
1.0
0.0
850,000000
-1,000000
501
8
0,489100
0,005900
#DATA
850,000000	0,005900
849,000000	0,006200
848,000000	0,006300
847,000000	0,006500
846,000000	0,008300
845,000000	0,009700
844,000000	0,010600
843,000000	0,012500
842,000000	0,014000
841,000000	0,014400
840,000000	0,014100
839,000000	0,018600
838,000000	0,019300
837,000000	0,019300
836,000000	0,021100
835,000000	0,021900
834,000000	0,025500
833,000000	0,026400
832,000000	0,027200
831,000000	0,029200
830,000000	0,030600
829,000000	0,032600
828,000000	0,034300
827,000000	0,035100
826,000000	0,039100
825,000000	0,039700
824,000000	0,037900
823,000000	0,042500
822,000000	0,043200
821,000000	0,041800
820,000000	0,044300
819,000000	0,044800
818,000000	0,045800
817,000000	0,046300
816,000000	0,047900
815,000000	0,047900
814,000000	0,048900
813,000000	0,049300
812,000000	0,050700
811,000000	0,051200
810,000000	0,049900
809,000000	0,056700
808,000000	0,058200
807,000000	0,062400
806,000000	0,059700
805,000000	0,061200
804,000000	0,063400
803,000000	0,062800
802,000000	0,063800
801,000000	0,066000
800,000000	0,065300
799,000000	0,066200
798,000000	0,066500
797,000000	0,069600
796,000000	0,068400
795,000000	0,069500
794,000000	0,070400
793,000000	0,070800
792,000000	0,071000
791,000000	0,071200
790,000000	0,073800
789,000000	0,074900
788,000000	0,073800
787,000000	0,075700
786,000000	0,075500
785,000000	0,076600
784,000000	0,078600
783,000000	0,080800
782,000000	0,078800
781,000000	0,081300
780,000000	0,083000
779,000000	0,083900
778,000000	0,082700
777,000000	0,086700
776,000000	0,084300
775,000000	0,086300
774,000000	0,086500
773,000000	0,088500
772,000000	0,088400
771,000000	0,091000
770,000000	0,089900
769,000000	0,091600
768,000000	0,092800
767,000000	0,094500
766,000000	0,096300
765,000000	0,094800
764,000000	0,095500
763,000000	0,098000
762,000000	0,097300
761,000000	0,098100
760,000000	0,100700
759,000000	0,102900
758,000000	0,101900
757,000000	0,104500
756,000000	0,104800
755,000000	0,106300
754,000000	0,107100
753,000000	0,108000
752,000000	0,109500
751,000000	0,110500
750,000000	0,113500
749,000000	0,113500
748,000000	0,114900
747,000000	0,116400
746,000000	0,118300
745,000000	0,118300
744,000000	0,119900
743,000000	0,121600
742,000000	0,123300
741,000000	0,122700
740,000000	0,125300
739,000000	0,127600
738,000000	0,128600
737,000000	0,130600
736,000000	0,131700
735,000000	0,133100
734,000000	0,134400
733,000000	0,137300
732,000000	0,139500
731,000000	0,140600
730,000000	0,143200
729,000000	0,144400
728,000000	0,144300
727,000000	0,148100
726,000000	0,150600
725,000000	0,151700
724,000000	0,153700
723,000000	0,155500
722,000000	0,157800
721,000000	0,159000
720,000000	0,161800
719,000000	0,164000
718,000000	0,165000
717,000000	0,167800
716,000000	0,171800
715,000000	0,173100
714,000000	0,174200
713,000000	0,178100
712,000000	0,180300
711,000000	0,180300
710,000000	0,182000
709,000000	0,185500
708,000000	0,187000
707,000000	0,187800
706,000000	0,189400
705,000000	0,190400
704,000000	0,192000
703,000000	0,194000
702,000000	0,195400
701,000000	0,195700
700,000000	0,197200
699,000000	0,199400
698,000000	0,200100
697,000000	0,201700
696,000000	0,202800
695,000000	0,203700
694,000000	0,202500
693,000000	0,200700
692,000000	0,202900
691,000000	0,202800
690,000000	0,202100
689,000000	0,208900
688,000000	0,214400
687,000000	0,216400
686,000000	0,215400
685,000000	0,218000
684,000000	0,221600
683,000000	0,223200
682,000000	0,224100
681,000000	0,227400
680,000000	0,230200
679,000000	0,233100
678,000000	0,236900
677,000000	0,239400
676,000000	0,241000
675,000000	0,243600
674,000000	0,246700
673,000000	0,250000
672,000000	0,253900
671,000000	0,258400
670,000000	0,260300
669,000000	0,262900
668,000000	0,267900
667,000000	0,273200
666,000000	0,277300
665,000000	0,281400
664,000000	0,285100
663,000000	0,289200
662,000000	0,292800
661,000000	0,299000
660,000000	0,304400
659,000000	0,307900
658,000000	0,310400
657,000000	0,314500
656,000000	0,317900
655,000000	0,322200
654,000000	0,326600
653,000000	0,330200
652,000000	0,330700
651,000000	0,334500
650,000000	0,338900
649,000000	0,342800
648,000000	0,347200
647,000000	0,350700
646,000000	0,353000
645,000000	0,356200
644,000000	0,361500
643,000000	0,366100
642,000000	0,369500
641,000000	0,373600
640,000000	0,375800
639,000000	0,378000
638,000000	0,381400
637,000000	0,386900
636,000000	0,390300
635,000000	0,391700
634,000000	0,394300
633,000000	0,396500
632,000000	0,399600
631,000000	0,402700
630,000000	0,406600
629,000000	0,409900
628,000000	0,409500
627,000000	0,411800
626,000000	0,414500
625,000000	0,418800
624,000000	0,423700
623,000000	0,426100
622,000000	0,426400
621,000000	0,428500
620,000000	0,431800
619,000000	0,436500
618,000000	0,437600
617,000000	0,440000
616,000000	0,441700
615,000000	0,444500
614,000000	0,444200
613,000000	0,450200
612,000000	0,453100
611,000000	0,455800
610,000000	0,454400
609,000000	0,456400
608,000000	0,458100
607,000000	0,463800
606,000000	0,466200
605,000000	0,467100
604,000000	0,469000
603,000000	0,469000
602,000000	0,470400
601,000000	0,473300
600,000000	0,475800
599,000000	0,477800
598,000000	0,473800
597,000000	0,477600
596,000000	0,477600
595,000000	0,481600
594,000000	0,481800
593,000000	0,483700
592,000000	0,481300
591,000000	0,481800
590,000000	0,482900
589,000000	0,486900
588,000000	0,485600
587,000000	0,487100
586,000000	0,489100
585,000000	0,484900
584,000000	0,486700
583,000000	0,486000
582,000000	0,487600
581,000000	0,486400
580,000000	0,488100
579,000000	0,482200
578,000000	0,485100
577,000000	0,483400
576,000000	0,485200
575,000000	0,481800
574,000000	0,477300
573,000000	0,476700
572,000000	0,473700
571,000000	0,474400
570,000000	0,469500
569,000000	0,469100
568,000000	0,460300
567,000000	0,455100
566,000000	0,452300
565,000000	0,448800
564,000000	0,441100
563,000000	0,434500
562,000000	0,427500
561,000000	0,401900
560,000000	0,401300
559,000000	0,401400
558,000000	0,404300
557,000000	0,408000
556,000000	0,406900
555,000000	0,406200
554,000000	0,410100
553,000000	0,404000
552,000000	0,408500
551,000000	0,408000
550,000000	0,405700
549,000000	0,406200
548,000000	0,406200
547,000000	0,406100
546,000000	0,400400
545,000000	0,401900
544,000000	0,400700
543,000000	0,397900
542,000000	0,395300
541,000000	0,395300
540,000000	0,389200
539,000000	0,389400
538,000000	0,385900
537,000000	0,383100
536,000000	0,381100
535,000000	0,375100
534,000000	0,372200
533,000000	0,369500
532,000000	0,367500
531,000000	0,365600
530,000000	0,361000
529,000000	0,354800
528,000000	0,350300
527,000000	0,347300
526,000000	0,345400
525,000000	0,339300
524,000000	0,334900
523,000000	0,330800
522,000000	0,324000
521,000000	0,320300
520,000000	0,318300
519,000000	0,313400
518,000000	0,308800
517,000000	0,304700
516,000000	0,295900
515,000000	0,295200
514,000000	0,291000
513,000000	0,287200
512,000000	0,281500
511,000000	0,278500
510,000000	0,274900
509,000000	0,270400
508,000000	0,266100
507,000000	0,263900
506,000000	0,261700
505,000000	0,257100
504,000000	0,254600
503,000000	0,254300
502,000000	0,250000
501,000000	0,250900
500,000000	0,248400
499,000000	0,247000
498,000000	0,248400
497,000000	0,247400
496,000000	0,250200
495,000000	0,249500
494,000000	0,252900
493,000000	0,256300
492,000000	0,257000
491,000000	0,261800
490,000000	0,266200
489,000000	0,272800
488,000000	0,277200
487,000000	0,284600
486,000000	0,291600
485,000000	0,297200
484,000000	0,302800
483,000000	0,313700
482,000000	0,318600
481,000000	0,318600
480,000000	0,316000
479,000000	0,314800
478,000000	0,308100
477,000000	0,308000
476,000000	0,305800
475,000000	0,303600
474,000000	0,300000
473,000000	0,297100
472,000000	0,292500
471,000000	0,291900
470,000000	0,288600
469,000000	0,286400
468,000000	0,282900
467,000000	0,278000
466,000000	0,273500
465,000000	0,272900
464,000000	0,269700
463,000000	0,266300
462,000000	0,261500
461,000000	0,259300
460,000000	0,255000
459,000000	0,254100
458,000000	0,248900
457,000000	0,247100
456,000000	0,244600
455,000000	0,239300
454,000000	0,234800
453,000000	0,235300
452,000000	0,232500
451,000000	0,228300
450,000000	0,224000
449,000000	0,223900
448,000000	0,219600
447,000000	0,216900
446,000000	0,215300
445,000000	0,213200
444,000000	0,209900
443,000000	0,212200
442,000000	0,210600
441,000000	0,209400
440,000000	0,208100
439,000000	0,207200
438,000000	0,203700
437,000000	0,204800
436,000000	0,202500
435,000000	0,202500
434,000000	0,200900
433,000000	0,198900
432,000000	0,198300
431,000000	0,197200
430,000000	0,196100
429,000000	0,196500
428,000000	0,194200
427,000000	0,192600
426,000000	0,190400
425,000000	0,188100
424,000000	0,186800
423,000000	0,187200
422,000000	0,185500
421,000000	0,184000
420,000000	0,181700
419,000000	0,179800
418,000000	0,178800
417,000000	0,176600
416,000000	0,175000
415,000000	0,171900
414,000000	0,168400
413,000000	0,165600
412,000000	0,166000
411,000000	0,164400
410,000000	0,161500
409,000000	0,161000
408,000000	0,158400
407,000000	0,153500
406,000000	0,150800
405,000000	0,150100
404,000000	0,147100
403,000000	0,143500
402,000000	0,140000
401,000000	0,136200
400,000000	0,133700
399,000000	0,132600
398,000000	0,130300
397,000000	0,126100
396,000000	0,122800
395,000000	0,119600
394,000000	0,117600
393,000000	0,116300
392,000000	0,113400
391,000000	0,111000
390,000000	0,106800
389,000000	0,102700
388,000000	0,102200
387,000000	0,100800
386,000000	0,097200
385,000000	0,094500
384,000000	0,091100
383,000000	0,088600
382,000000	0,088100
381,000000	0,087000
380,000000	0,085100
379,000000	0,082600
378,000000	0,038200
377,000000	0,006500
376,000000	0,009100
375,000000	0,009000
374,000000	0,008400
373,000000	0,010700
372,000000	0,012000
371,000000	0,011800
370,000000	0,012700
369,000000	0,011900
368,000000	0,011200
367,000000	0,013300
366,000000	0,014600
365,000000	0,013600
364,000000	0,014800
363,000000	0,014200
362,000000	0,011500
361,000000	0,012300
360,000000	0,013100
359,000000	0,010800
358,000000	0,009400
357,000000	0,009300
356,000000	0,009500
355,000000	0,010000
354,000000	0,011000
353,000000	0,011400
352,000000	0,010300
351,000000	0,008600
350,000000	0,008400
