PE UV       SUBTECH     SPECTRUM    ASCII       PEDS        4.00        
   -1
Sample4793.Sample.asc
23/08/31
22:38:56.00
23/08/31
22:38:56.00
Analyst

350,000000
1
Lambda 850
850N4111301
PerkinElmer UV WinLab 6.4.0.971 / 1.61.00 Lambda 800

0
0
2
0
0
VIS
1
1
1
RBeamAtt,SBeamAtt,150mm sphere / downward view
0
0
0
0
Fix
 
0
0,2
0
30
0
 
 
 
0
 
0
150
0
Front
100
 
S:100 R:100
 
0
0
0
 
0
 
 
 
0
 
 
0
0
0
0
0
 
 
 
 
0
0


0
0
#HDR
-1
-1
#GR
nm
EGY
1.0
0.0
850,000000
-1,000000
501
8
0,072500
-0,004900
#DATA
850,000000	-0,001400
849,000000	-0,002600
848,000000	-0,002400
847,000000	-0,002100
846,000000	-0,004900
845,000000	-0,000700
844,000000	0,000400
843,000000	0,000400
842,000000	-0,001800
841,000000	0,001000
840,000000	-0,000300
839,000000	-0,000700
838,000000	0,000700
837,000000	0,002200
836,000000	0,000300
835,000000	0,000400
834,000000	0,000600
833,000000	0,001500
832,000000	0,000700
831,000000	0,001700
830,000000	0,001700
829,000000	0,002200
828,000000	0,000700
827,000000	0,002900
826,000000	0,002000
825,000000	0,001700
824,000000	0,002600
823,000000	0,004000
822,000000	0,001900
821,000000	0,003600
820,000000	0,005100
819,000000	0,004400
818,000000	0,003000
817,000000	0,004300
816,000000	0,003800
815,000000	0,003300
814,000000	0,003700
813,000000	0,004700
812,000000	0,003900
811,000000	0,003500
810,000000	0,005100
809,000000	0,005100
808,000000	0,005700
807,000000	0,005000
806,000000	0,004900
805,000000	0,006900
804,000000	0,006400
803,000000	0,006100
802,000000	0,007800
801,000000	0,006400
800,000000	0,005800
799,000000	0,008200
798,000000	0,008000
797,000000	0,007200
796,000000	0,007700
795,000000	0,008600
794,000000	0,007300
793,000000	0,007300
792,000000	0,008300
791,000000	0,008300
790,000000	0,007700
789,000000	0,006700
788,000000	0,007500
787,000000	0,008700
786,000000	0,009100
785,000000	0,009200
784,000000	0,007800
783,000000	0,007500
782,000000	0,008100
781,000000	0,009700
780,000000	0,008500
779,000000	0,009500
778,000000	0,010000
777,000000	0,008400
776,000000	0,007300
775,000000	0,010700
774,000000	0,010600
773,000000	0,009800
772,000000	0,009400
771,000000	0,009800
770,000000	0,009700
769,000000	0,010600
768,000000	0,011300
767,000000	0,010300
766,000000	0,010400
765,000000	0,011200
764,000000	0,011700
763,000000	0,012100
762,000000	0,012400
761,000000	0,012300
760,000000	0,010600
759,000000	0,009700
758,000000	0,011100
757,000000	0,012900
756,000000	0,012600
755,000000	0,012500
754,000000	0,012000
753,000000	0,012100
752,000000	0,012900
751,000000	0,014300
750,000000	0,013600
749,000000	0,013700
748,000000	0,013600
747,000000	0,013400
746,000000	0,012800
745,000000	0,015100
744,000000	0,015700
743,000000	0,014400
742,000000	0,013600
741,000000	0,014900
740,000000	0,014900
739,000000	0,016100
738,000000	0,016500
737,000000	0,015500
736,000000	0,014700
735,000000	0,015200
734,000000	0,016000
733,000000	0,017400
732,000000	0,017500
731,000000	0,017900
730,000000	0,017100
729,000000	0,016800
728,000000	0,018100
727,000000	0,019700
726,000000	0,018800
725,000000	0,018200
724,000000	0,018300
723,000000	0,018100
722,000000	0,018400
721,000000	0,020800
720,000000	0,021600
719,000000	0,020300
718,000000	0,019100
717,000000	0,019500
716,000000	0,019900
715,000000	0,022400
714,000000	0,023700
713,000000	0,021900
712,000000	0,020100
711,000000	0,021900
710,000000	0,023500
709,000000	0,024000
708,000000	0,024100
707,000000	0,023600
706,000000	0,023300
705,000000	0,023500
704,000000	0,024100
703,000000	0,026100
702,000000	0,026600
701,000000	0,025400
700,000000	0,024400
699,000000	0,024100
698,000000	0,026100
697,000000	0,029400
696,000000	0,028700
695,000000	0,026300
694,000000	0,027100
693,000000	0,027500
692,000000	0,027200
691,000000	0,029100
690,000000	0,030200
689,000000	0,031100
688,000000	0,030100
687,000000	0,030000
686,000000	0,031400
685,000000	0,033700
684,000000	0,034600
683,000000	0,034900
682,000000	0,034700
681,000000	0,033900
680,000000	0,033700
679,000000	0,036400
678,000000	0,038300
677,000000	0,038000
676,000000	0,037000
675,000000	0,037000
674,000000	0,036800
673,000000	0,039700
672,000000	0,041700
671,000000	0,041000
670,000000	0,038800
669,000000	0,039700
668,000000	0,040200
667,000000	0,041500
666,000000	0,043500
665,000000	0,044100
664,000000	0,042100
663,000000	0,041500
662,000000	0,042800
661,000000	0,045100
660,000000	0,045900
659,000000	0,046800
658,000000	0,045000
657,000000	0,043900
656,000000	0,044700
655,000000	0,048300
654,000000	0,049200
653,000000	0,049000
652,000000	0,048700
651,000000	0,048300
650,000000	0,047600
649,000000	0,051100
648,000000	0,052000
647,000000	0,051600
646,000000	0,050800
645,000000	0,050300
644,000000	0,050700
643,000000	0,053400
642,000000	0,055500
641,000000	0,055500
640,000000	0,052200
639,000000	0,053700
638,000000	0,054100
637,000000	0,055900
636,000000	0,056600
635,000000	0,058500
634,000000	0,057100
633,000000	0,054700
632,000000	0,058600
631,000000	0,059200
630,000000	0,059400
629,000000	0,060100
628,000000	0,059300
627,000000	0,058000
626,000000	0,058700
625,000000	0,061900
624,000000	0,061800
623,000000	0,061800
622,000000	0,062100
621,000000	0,061500
620,000000	0,060200
619,000000	0,063700
618,000000	0,065700
617,000000	0,065200
616,000000	0,064500
615,000000	0,063400
614,000000	0,066400
613,000000	0,065400
612,000000	0,065900
611,000000	0,066400
610,000000	0,067500
609,000000	0,064400
608,000000	0,066300
607,000000	0,067800
606,000000	0,067500
605,000000	0,068100
604,000000	0,066700
603,000000	0,065600
602,000000	0,066200
601,000000	0,070900
600,000000	0,069200
599,000000	0,068600
598,000000	0,070300
597,000000	0,067300
596,000000	0,069400
595,000000	0,068600
594,000000	0,069900
593,000000	0,070200
592,000000	0,070200
591,000000	0,067800
590,000000	0,070100
589,000000	0,069100
588,000000	0,070700
587,000000	0,070900
586,000000	0,070700
585,000000	0,068300
584,000000	0,072500
583,000000	0,069700
582,000000	0,068900
581,000000	0,069900
580,000000	0,071700
579,000000	0,066900
578,000000	0,070200
577,000000	0,068900
576,000000	0,069500
575,000000	0,069100
574,000000	0,070500
573,000000	0,066800
572,000000	0,068000
571,000000	0,067000
570,000000	0,067800
569,000000	0,065900
568,000000	0,067000
567,000000	0,064500
566,000000	0,064800
565,000000	0,062300
564,000000	0,063500
563,000000	0,062600
562,000000	0,061200
561,000000	0,055400
560,000000	0,057100
559,000000	0,054200
558,000000	0,057700
557,000000	0,055700
556,000000	0,058400
555,000000	0,057700
554,000000	0,055600
553,000000	0,054100
552,000000	0,055400
551,000000	0,058100
550,000000	0,057400
549,000000	0,058200
548,000000	0,056800
547,000000	0,056800
546,000000	0,053400
545,000000	0,058400
544,000000	0,053700
543,000000	0,055800
542,000000	0,057600
541,000000	0,055400
540,000000	0,051300
539,000000	0,055700
538,000000	0,053400
537,000000	0,053900
536,000000	0,054200
535,000000	0,053300
534,000000	0,049700
533,000000	0,050200
532,000000	0,052100
531,000000	0,050700
530,000000	0,050600
529,000000	0,050000
528,000000	0,048300
527,000000	0,049700
526,000000	0,047900
525,000000	0,050000
524,000000	0,048200
523,000000	0,046200
522,000000	0,046000
521,000000	0,047300
520,000000	0,045100
519,000000	0,045100
518,000000	0,044700
517,000000	0,044300
516,000000	0,042800
515,000000	0,044000
514,000000	0,042300
513,000000	0,042300
512,000000	0,043300
511,000000	0,043200
510,000000	0,042400
509,000000	0,040300
508,000000	0,040200
507,000000	0,040800
506,000000	0,040600
505,000000	0,041400
504,000000	0,042400
503,000000	0,039300
502,000000	0,038500
501,000000	0,041400
500,000000	0,041500
499,000000	0,041200
498,000000	0,038900
497,000000	0,042600
496,000000	0,042600
495,000000	0,044200
494,000000	0,044600
493,000000	0,043900
492,000000	0,047100
491,000000	0,046100
490,000000	0,045100
489,000000	0,048400
488,000000	0,050300
487,000000	0,051700
486,000000	0,050000
485,000000	0,053900
484,000000	0,054900
483,000000	0,055900
482,000000	0,055600
481,000000	0,056300
480,000000	0,055800
479,000000	0,053200
478,000000	0,052500
477,000000	0,054300
476,000000	0,052200
475,000000	0,053500
474,000000	0,054200
473,000000	0,050400
472,000000	0,048500
471,000000	0,051600
470,000000	0,050800
469,000000	0,049900
468,000000	0,050000
467,000000	0,048000
466,000000	0,046200
465,000000	0,047400
464,000000	0,048300
463,000000	0,046600
462,000000	0,046200
461,000000	0,044300
460,000000	0,043400
459,000000	0,044300
458,000000	0,044600
457,000000	0,044800
456,000000	0,042200
455,000000	0,040300
454,000000	0,040900
453,000000	0,042300
452,000000	0,041700
451,000000	0,041400
450,000000	0,040000
449,000000	0,038100
448,000000	0,039100
447,000000	0,041000
446,000000	0,040000
445,000000	0,039700
444,000000	0,039600
443,000000	0,038500
442,000000	0,038700
441,000000	0,040500
440,000000	0,041200
439,000000	0,039500
438,000000	0,038000
437,000000	0,037500
436,000000	0,037600
435,000000	0,039200
434,000000	0,039100
433,000000	0,038200
432,000000	0,036400
431,000000	0,035600
430,000000	0,036800
429,000000	0,037400
428,000000	0,037600
427,000000	0,037400
426,000000	0,035500
425,000000	0,033700
424,000000	0,034900
423,000000	0,036400
422,000000	0,034700
421,000000	0,033500
420,000000	0,034400
419,000000	0,033700
418,000000	0,032500
417,000000	0,032900
416,000000	0,032600
415,000000	0,032600
414,000000	0,032200
413,000000	0,029500
412,000000	0,028900
411,000000	0,030800
410,000000	0,030700
409,000000	0,028600
408,000000	0,026600
407,000000	0,026100
406,000000	0,027200
405,000000	0,027300
404,000000	0,026700
403,000000	0,026900
402,000000	0,025200
401,000000	0,022300
400,000000	0,022700
399,000000	0,023800
398,000000	0,021600
397,000000	0,020500
396,000000	0,019900
395,000000	0,019200
394,000000	0,020200
393,000000	0,020700
392,000000	0,018400
391,000000	0,016900
390,000000	0,017100
389,000000	0,016900
388,000000	0,016800
387,000000	0,017300
386,000000	0,015800
385,000000	0,014100
384,000000	0,013400
383,000000	0,013400
382,000000	0,014000
381,000000	0,014200
380,000000	0,012500
379,000000	0,011400
378,000000	0,004500
377,000000	-0,003300
376,000000	-0,004200
375,000000	-0,002600
374,000000	-0,000500
373,000000	0,000200
372,000000	0,000600
371,000000	-0,002000
370,000000	-0,003700
369,000000	-0,002200
368,000000	0,000800
367,000000	0,000800
366,000000	0,000100
365,000000	-0,001100
364,000000	-0,001900
363,000000	-0,002500
362,000000	0,000000
361,000000	0,000800
360,000000	-0,000500
359,000000	-0,002600
358,000000	-0,002300
357,000000	-0,000500
356,000000	-0,001000
355,000000	0,000600
354,000000	0,000400
353,000000	-0,002900
352,000000	-0,003400
351,000000	-0,002400
350,000000	-0,000500
