PE UV       SUBTECH     SPECTRUM    ASCII       PEDS        4.00        
   -1
Sample4794.Sample.asc
23/08/31
22:42:17.00
23/08/31
22:42:17.00
Analyst

350,000000
1
Lambda 850
850N4111301
PerkinElmer UV WinLab 6.4.0.971 / 1.61.00 Lambda 800

0
0
2
0
0
VIS
1
1
1
RBeamAtt,SBeamAtt,150mm sphere / downward view
0
0
0
0
Fix
 
0
0,2
0
30
0
 
 
 
0
 
0
150
0
Front
100
 
S:100 R:100
 
0
0
0
 
0
 
 
 
0
 
 
0
0
0
0
0
 
 
 
 
0
0


0
0
#HDR
-1
-1
#GR
nm
EGY
1.0
0.0
850,000000
-1,000000
501
8
0,517300
0,005000
#DATA
850,000000	0,005000
849,000000	0,007300
848,000000	0,006700
847,000000	0,006500
846,000000	0,008000
845,000000	0,009100
844,000000	0,010000
843,000000	0,011000
842,000000	0,012800
841,000000	0,013200
840,000000	0,014200
839,000000	0,016800
838,000000	0,018400
837,000000	0,020000
836,000000	0,021300
835,000000	0,022800
834,000000	0,024300
833,000000	0,026700
832,000000	0,029300
831,000000	0,030000
830,000000	0,029600
829,000000	0,033800
828,000000	0,033800
827,000000	0,036400
826,000000	0,037900
825,000000	0,039000
824,000000	0,039200
823,000000	0,041800
822,000000	0,042100
821,000000	0,044300
820,000000	0,045700
819,000000	0,046800
818,000000	0,047300
817,000000	0,047200
816,000000	0,047700
815,000000	0,050800
814,000000	0,050800
813,000000	0,050300
812,000000	0,052100
811,000000	0,053200
810,000000	0,051700
809,000000	0,058000
808,000000	0,060800
807,000000	0,063500
806,000000	0,061600
805,000000	0,062800
804,000000	0,064500
803,000000	0,064700
802,000000	0,065100
801,000000	0,067300
800,000000	0,066600
799,000000	0,068200
798,000000	0,068600
797,000000	0,070500
796,000000	0,070200
795,000000	0,071400
794,000000	0,072900
793,000000	0,074300
792,000000	0,072700
791,000000	0,074800
790,000000	0,076000
789,000000	0,077600
788,000000	0,075900
787,000000	0,078500
786,000000	0,079900
785,000000	0,079600
784,000000	0,079700
783,000000	0,080800
782,000000	0,080900
781,000000	0,082300
780,000000	0,084600
779,000000	0,084700
778,000000	0,086000
777,000000	0,086800
776,000000	0,087900
775,000000	0,088900
774,000000	0,090600
773,000000	0,091800
772,000000	0,091800
771,000000	0,091900
770,000000	0,093500
769,000000	0,095000
768,000000	0,095500
767,000000	0,096500
766,000000	0,097500
765,000000	0,096500
764,000000	0,097500
763,000000	0,101000
762,000000	0,101200
761,000000	0,102400
760,000000	0,104700
759,000000	0,105700
758,000000	0,105200
757,000000	0,107800
756,000000	0,109900
755,000000	0,110300
754,000000	0,110600
753,000000	0,112500
752,000000	0,113900
751,000000	0,115400
750,000000	0,117300
749,000000	0,118700
748,000000	0,118800
747,000000	0,120200
746,000000	0,121800
745,000000	0,123000
744,000000	0,125000
743,000000	0,127000
742,000000	0,127500
741,000000	0,128000
740,000000	0,131000
739,000000	0,134100
738,000000	0,133800
737,000000	0,134200
736,000000	0,136400
735,000000	0,137600
734,000000	0,139200
733,000000	0,143300
732,000000	0,145100
731,000000	0,145700
730,000000	0,147400
729,000000	0,149700
728,000000	0,151700
727,000000	0,154900
726,000000	0,157700
725,000000	0,158200
724,000000	0,158200
723,000000	0,161700
722,000000	0,165400
721,000000	0,166900
720,000000	0,168800
719,000000	0,171900
718,000000	0,173000
717,000000	0,175300
716,000000	0,179300
715,000000	0,181900
714,000000	0,184200
713,000000	0,186000
712,000000	0,186600
711,000000	0,188800
710,000000	0,191700
709,000000	0,195600
708,000000	0,197500
707,000000	0,196700
706,000000	0,198500
705,000000	0,201100
704,000000	0,202900
703,000000	0,206700
702,000000	0,209900
701,000000	0,210300
700,000000	0,211100
699,000000	0,213700
698,000000	0,216700
697,000000	0,219600
696,000000	0,221600
695,000000	0,221900
694,000000	0,222200
693,000000	0,224500
692,000000	0,229000
691,000000	0,232200
690,000000	0,233200
689,000000	0,242100
688,000000	0,250500
687,000000	0,254300
686,000000	0,257200
685,000000	0,262700
684,000000	0,268600
683,000000	0,271000
682,000000	0,272600
681,000000	0,277500
680,000000	0,281600
679,000000	0,285200
678,000000	0,290200
677,000000	0,294000
676,000000	0,294300
675,000000	0,296100
674,000000	0,299800
673,000000	0,304400
672,000000	0,308500
671,000000	0,312200
670,000000	0,313000
669,000000	0,315400
668,000000	0,319400
667,000000	0,324300
666,000000	0,328100
665,000000	0,331300
664,000000	0,332900
663,000000	0,335600
662,000000	0,337300
661,000000	0,342300
660,000000	0,347800
659,000000	0,351100
658,000000	0,352100
657,000000	0,354700
656,000000	0,359200
655,000000	0,363800
654,000000	0,368400
653,000000	0,371200
652,000000	0,372200
651,000000	0,376000
650,000000	0,379700
649,000000	0,384000
648,000000	0,387400
647,000000	0,391300
646,000000	0,392200
645,000000	0,393100
644,000000	0,397300
643,000000	0,403700
642,000000	0,406200
641,000000	0,409200
640,000000	0,411300
639,000000	0,413400
638,000000	0,417300
637,000000	0,421900
636,000000	0,425300
635,000000	0,427800
634,000000	0,429300
633,000000	0,432500
632,000000	0,435500
631,000000	0,439700
630,000000	0,444800
629,000000	0,447100
628,000000	0,446400
627,000000	0,449000
626,000000	0,453500
625,000000	0,456800
624,000000	0,459500
623,000000	0,462200
622,000000	0,463200
621,000000	0,464600
620,000000	0,468300
619,000000	0,473200
618,000000	0,475700
617,000000	0,478500
616,000000	0,480400
615,000000	0,478900
614,000000	0,483800
613,000000	0,487500
612,000000	0,489500
611,000000	0,490000
610,000000	0,491400
609,000000	0,492400
608,000000	0,494200
607,000000	0,497600
606,000000	0,500100
605,000000	0,501200
604,000000	0,501600
603,000000	0,501600
602,000000	0,505700
601,000000	0,505900
600,000000	0,509000
599,000000	0,510700
598,000000	0,510100
597,000000	0,508100
596,000000	0,514500
595,000000	0,512500
594,000000	0,512600
593,000000	0,515000
592,000000	0,516300
591,000000	0,512700
590,000000	0,516600
589,000000	0,516200
588,000000	0,516700
587,000000	0,515000
586,000000	0,517300
585,000000	0,514300
584,000000	0,515800
583,000000	0,515200
582,000000	0,516300
581,000000	0,513300
580,000000	0,510100
579,000000	0,511100
578,000000	0,509200
577,000000	0,510500
576,000000	0,508500
575,000000	0,507000
574,000000	0,502500
573,000000	0,498800
572,000000	0,497700
571,000000	0,497700
570,000000	0,492000
569,000000	0,489400
568,000000	0,485500
567,000000	0,476200
566,000000	0,476100
565,000000	0,468900
564,000000	0,460300
563,000000	0,454400
562,000000	0,448000
561,000000	0,419000
560,000000	0,418800
559,000000	0,415400
558,000000	0,422300
557,000000	0,421800
556,000000	0,420700
555,000000	0,421300
554,000000	0,420300
553,000000	0,419700
552,000000	0,418400
551,000000	0,423000
550,000000	0,421100
549,000000	0,420000
548,000000	0,419200
547,000000	0,416100
546,000000	0,413200
545,000000	0,413600
544,000000	0,414200
543,000000	0,411200
542,000000	0,409400
541,000000	0,406500
540,000000	0,403100
539,000000	0,401600
538,000000	0,400700
537,000000	0,398700
536,000000	0,394900
535,000000	0,389900
534,000000	0,389400
533,000000	0,385200
532,000000	0,380400
531,000000	0,379100
530,000000	0,376200
529,000000	0,371000
528,000000	0,365300
527,000000	0,365100
526,000000	0,361200
525,000000	0,358400
524,000000	0,355900
523,000000	0,351100
522,000000	0,344000
521,000000	0,343400
520,000000	0,342300
519,000000	0,337000
518,000000	0,332300
517,000000	0,330500
516,000000	0,324800
515,000000	0,322400
514,000000	0,319100
513,000000	0,317600
512,000000	0,314800
511,000000	0,311200
510,000000	0,309300
509,000000	0,307600
508,000000	0,304600
507,000000	0,305300
506,000000	0,304100
505,000000	0,300700
504,000000	0,300800
503,000000	0,301800
502,000000	0,300100
501,000000	0,300900
500,000000	0,303400
499,000000	0,304900
498,000000	0,303900
497,000000	0,309200
496,000000	0,312400
495,000000	0,316900
494,000000	0,320900
493,000000	0,326200
492,000000	0,333000
491,000000	0,336700
490,000000	0,344300
489,000000	0,354700
488,000000	0,360800
487,000000	0,369900
486,000000	0,380200
485,000000	0,385100
484,000000	0,392700
483,000000	0,402900
482,000000	0,404700
481,000000	0,402200
480,000000	0,399600
479,000000	0,393200
478,000000	0,387400
477,000000	0,386500
476,000000	0,384000
475,000000	0,379700
474,000000	0,376900
473,000000	0,371700
472,000000	0,367700
471,000000	0,365900
470,000000	0,363400
469,000000	0,360000
468,000000	0,355100
467,000000	0,348400
466,000000	0,345200
465,000000	0,343500
464,000000	0,339000
463,000000	0,334900
462,000000	0,330200
461,000000	0,327500
460,000000	0,323300
459,000000	0,322200
458,000000	0,317800
457,000000	0,315100
456,000000	0,313900
455,000000	0,308800
454,000000	0,304900
453,000000	0,305700
452,000000	0,303700
451,000000	0,300600
450,000000	0,297200
449,000000	0,294700
448,000000	0,293100
447,000000	0,293400
446,000000	0,292000
445,000000	0,291200
444,000000	0,291000
443,000000	0,289800
442,000000	0,290100
441,000000	0,291100
440,000000	0,289800
439,000000	0,289000
438,000000	0,287100
437,000000	0,285500
436,000000	0,284600
435,000000	0,284000
434,000000	0,280800
433,000000	0,277300
432,000000	0,275100
431,000000	0,272700
430,000000	0,271100
429,000000	0,270400
428,000000	0,268400
427,000000	0,266200
426,000000	0,264900
425,000000	0,260700
424,000000	0,257600
423,000000	0,256200
422,000000	0,254400
421,000000	0,250800
420,000000	0,246300
419,000000	0,243600
418,000000	0,242800
417,000000	0,240500
416,000000	0,236800
415,000000	0,234600
414,000000	0,229800
413,000000	0,223900
412,000000	0,221600
411,000000	0,220200
410,000000	0,216500
409,000000	0,212200
408,000000	0,208200
407,000000	0,204300
406,000000	0,200700
405,000000	0,197800
404,000000	0,192700
403,000000	0,187100
402,000000	0,182800
401,000000	0,177900
400,000000	0,173900
399,000000	0,171800
398,000000	0,168500
397,000000	0,163300
396,000000	0,158200
395,000000	0,154700
394,000000	0,152400
393,000000	0,149200
392,000000	0,145100
391,000000	0,141100
390,000000	0,136400
389,000000	0,132400
388,000000	0,131500
387,000000	0,129200
386,000000	0,125100
385,000000	0,122900
384,000000	0,120500
383,000000	0,116000
382,000000	0,113200
381,000000	0,111400
380,000000	0,107500
379,000000	0,103500
378,000000	0,048500
377,000000	0,008700
376,000000	0,010200
375,000000	0,010000
374,000000	0,011400
373,000000	0,014800
372,000000	0,016500
371,000000	0,015500
370,000000	0,015500
369,000000	0,015300
368,000000	0,014200
367,000000	0,016500
366,000000	0,017700
365,000000	0,016100
364,000000	0,015900
363,000000	0,015500
362,000000	0,013600
361,000000	0,015100
360,000000	0,017100
359,000000	0,016100
358,000000	0,015700
357,000000	0,014600
356,000000	0,013300
355,000000	0,013500
354,000000	0,013400
353,000000	0,013000
352,000000	0,012300
351,000000	0,010900
350,000000	0,009100
