PE UV       SUBTECH     SPECTRUM    ASCII       PEDS        4.00        
   -1
Sample4805.Sample.asc
23/08/31
23:49:40.00
23/08/31
23:49:40.00
Analyst

350,000000
1
Lambda 850
850N4111301
PerkinElmer UV WinLab 6.4.0.971 / 1.61.00 Lambda 800

0
0
2
0
0
VIS
1
1
1
RBeamAtt,SBeamAtt,150mm sphere / downward view
0
0
0
0
Fix
 
0
0,2
0
30
0
 
 
 
0
 
0
150
0
Front
100
 
S:100 R:100
 
0
0
0
 
0
 
 
 
0
 
 
0
0
0
0
0
 
 
 
 
0
0


0
0
#HDR
-1
-1
#GR
nm
EGY
1.0
0.0
850,000000
-1,000000
501
8
0,039200
-0,004800
#DATA
850,000000	-0,003900
849,000000	-0,002900
848,000000	-0,001700
847,000000	-0,004800
846,000000	-0,003800
845,000000	-0,001400
844,000000	0,000200
843,000000	-0,002900
842,000000	-0,001500
841,000000	-0,001700
840,000000	-0,002700
839,000000	-0,002100
838,000000	0,001000
837,000000	-0,000800
836,000000	-0,002900
835,000000	-0,000200
834,000000	-0,002100
833,000000	-0,000200
832,000000	0,000900
831,000000	0,002000
830,000000	-0,001300
829,000000	-0,001100
828,000000	-0,000500
827,000000	0,001900
826,000000	0,000200
825,000000	0,000400
824,000000	0,000800
823,000000	0,001100
822,000000	-0,000300
821,000000	0,001400
820,000000	0,001300
819,000000	0,000300
818,000000	0,000700
817,000000	0,000100
816,000000	-0,000600
815,000000	0,001900
814,000000	0,002800
813,000000	0,000400
812,000000	0,001200
811,000000	0,002900
810,000000	0,000800
809,000000	0,001300
808,000000	0,001600
807,000000	0,002800
806,000000	0,002800
805,000000	0,001800
804,000000	0,002500
803,000000	0,003300
802,000000	0,002700
801,000000	0,002000
800,000000	0,002700
799,000000	0,003700
798,000000	0,002900
797,000000	0,002800
796,000000	0,003000
795,000000	0,002700
794,000000	0,001200
793,000000	0,002900
792,000000	0,002400
791,000000	0,002500
790,000000	0,004200
789,000000	0,003700
788,000000	0,001900
787,000000	0,003600
786,000000	0,005200
785,000000	0,004000
784,000000	0,003000
783,000000	0,003800
782,000000	0,003700
781,000000	0,004000
780,000000	0,003400
779,000000	0,003800
778,000000	0,003400
777,000000	0,003100
776,000000	0,004300
775,000000	0,004600
774,000000	0,004400
773,000000	0,004900
772,000000	0,003200
771,000000	0,002900
770,000000	0,004500
769,000000	0,005200
768,000000	0,004900
767,000000	0,004800
766,000000	0,004200
765,000000	0,004300
764,000000	0,004800
763,000000	0,005400
762,000000	0,004700
761,000000	0,003500
760,000000	0,003100
759,000000	0,004600
758,000000	0,003300
757,000000	0,005800
756,000000	0,007000
755,000000	0,006200
754,000000	0,004600
753,000000	0,004800
752,000000	0,005800
751,000000	0,006900
750,000000	0,005800
749,000000	0,005300
748,000000	0,004400
747,000000	0,004400
746,000000	0,003900
745,000000	0,007100
744,000000	0,006900
743,000000	0,006000
742,000000	0,006300
741,000000	0,006000
740,000000	0,006600
739,000000	0,007800
738,000000	0,008200
737,000000	0,006300
736,000000	0,005200
735,000000	0,006000
734,000000	0,005700
733,000000	0,008000
732,000000	0,009400
731,000000	0,007800
730,000000	0,006500
729,000000	0,007100
728,000000	0,007100
727,000000	0,008400
726,000000	0,009100
725,000000	0,008300
724,000000	0,007000
723,000000	0,008800
722,000000	0,010300
721,000000	0,010000
720,000000	0,009600
719,000000	0,009800
718,000000	0,009700
717,000000	0,007800
716,000000	0,008600
715,000000	0,011600
714,000000	0,011000
713,000000	0,009900
712,000000	0,009700
711,000000	0,009700
710,000000	0,010700
709,000000	0,012200
708,000000	0,012500
707,000000	0,011300
706,000000	0,010900
705,000000	0,011300
704,000000	0,010800
703,000000	0,011900
702,000000	0,013100
701,000000	0,012000
700,000000	0,010000
699,000000	0,011000
698,000000	0,013400
697,000000	0,014200
696,000000	0,013600
695,000000	0,012100
694,000000	0,011300
693,000000	0,010500
692,000000	0,012200
691,000000	0,014300
690,000000	0,013200
689,000000	0,012800
688,000000	0,013100
687,000000	0,013100
686,000000	0,012700
685,000000	0,014400
684,000000	0,016500
683,000000	0,016200
682,000000	0,013000
681,000000	0,013700
680,000000	0,015700
679,000000	0,014700
678,000000	0,015800
677,000000	0,017500
676,000000	0,015500
675,000000	0,015400
674,000000	0,015200
673,000000	0,016900
672,000000	0,018600
671,000000	0,018600
670,000000	0,017100
669,000000	0,017200
668,000000	0,016900
667,000000	0,018900
666,000000	0,019800
665,000000	0,019300
664,000000	0,018500
663,000000	0,018800
662,000000	0,018600
661,000000	0,020700
660,000000	0,023100
659,000000	0,023300
658,000000	0,020200
657,000000	0,020900
656,000000	0,021500
655,000000	0,022700
654,000000	0,023400
653,000000	0,024500
652,000000	0,022300
651,000000	0,021600
650,000000	0,022600
649,000000	0,024400
648,000000	0,025600
647,000000	0,026300
646,000000	0,024000
645,000000	0,024000
644,000000	0,024200
643,000000	0,026800
642,000000	0,028500
641,000000	0,026300
640,000000	0,026000
639,000000	0,026100
638,000000	0,026200
637,000000	0,028000
636,000000	0,030000
635,000000	0,028100
634,000000	0,025900
633,000000	0,027000
632,000000	0,027000
631,000000	0,030200
630,000000	0,030900
629,000000	0,030600
628,000000	0,028000
627,000000	0,029400
626,000000	0,028700
625,000000	0,031300
624,000000	0,032400
623,000000	0,032000
622,000000	0,029600
621,000000	0,031200
620,000000	0,030000
619,000000	0,032400
618,000000	0,033600
617,000000	0,032300
616,000000	0,033300
615,000000	0,032300
614,000000	0,032900
613,000000	0,034000
612,000000	0,035000
611,000000	0,033400
610,000000	0,032800
609,000000	0,032300
608,000000	0,033500
607,000000	0,034900
606,000000	0,036100
605,000000	0,036000
604,000000	0,036200
603,000000	0,034200
602,000000	0,037100
601,000000	0,035600
600,000000	0,034900
599,000000	0,037100
598,000000	0,037500
597,000000	0,033000
596,000000	0,037600
595,000000	0,037000
594,000000	0,036100
593,000000	0,036200
592,000000	0,036500
591,000000	0,034200
590,000000	0,034600
589,000000	0,037600
588,000000	0,038000
587,000000	0,035800
586,000000	0,036600
585,000000	0,033800
584,000000	0,035700
583,000000	0,037100
582,000000	0,038400
581,000000	0,037900
580,000000	0,036500
579,000000	0,035900
578,000000	0,039200
577,000000	0,035700
576,000000	0,037300
575,000000	0,038000
574,000000	0,037100
573,000000	0,033600
572,000000	0,038100
571,000000	0,036100
570,000000	0,036800
569,000000	0,034300
568,000000	0,037200
567,000000	0,031400
566,000000	0,033700
565,000000	0,034300
564,000000	0,034400
563,000000	0,031700
562,000000	0,034400
561,000000	0,028800
560,000000	0,030400
559,000000	0,029100
558,000000	0,031100
557,000000	0,029900
556,000000	0,030500
555,000000	0,030500
554,000000	0,032700
553,000000	0,028900
552,000000	0,029200
551,000000	0,030700
550,000000	0,032500
549,000000	0,030200
548,000000	0,030500
547,000000	0,030000
546,000000	0,030400
545,000000	0,030100
544,000000	0,029300
543,000000	0,029800
542,000000	0,030000
541,000000	0,029900
540,000000	0,031100
539,000000	0,029800
538,000000	0,027200
537,000000	0,030700
536,000000	0,028900
535,000000	0,028400
534,000000	0,028600
533,000000	0,029000
532,000000	0,027000
531,000000	0,026500
530,000000	0,027500
529,000000	0,027300
528,000000	0,027100
527,000000	0,025000
526,000000	0,023600
525,000000	0,025400
524,000000	0,024300
523,000000	0,025800
522,000000	0,021200
521,000000	0,024100
520,000000	0,024700
519,000000	0,024200
518,000000	0,022900
517,000000	0,023100
516,000000	0,025300
515,000000	0,020800
514,000000	0,018900
513,000000	0,022100
512,000000	0,021100
511,000000	0,020600
510,000000	0,017600
509,000000	0,020800
508,000000	0,018800
507,000000	0,018300
506,000000	0,020000
505,000000	0,019200
504,000000	0,015000
503,000000	0,020100
502,000000	0,019300
501,000000	0,017100
500,000000	0,018900
499,000000	0,019900
498,000000	0,018900
497,000000	0,016500
496,000000	0,016500
495,000000	0,019300
494,000000	0,018800
493,000000	0,019200
492,000000	0,019300
491,000000	0,019700
490,000000	0,019000
489,000000	0,021200
488,000000	0,020400
487,000000	0,021500
486,000000	0,024300
485,000000	0,022300
484,000000	0,021400
483,000000	0,024800
482,000000	0,025800
481,000000	0,025500
480,000000	0,024200
479,000000	0,024400
478,000000	0,023900
477,000000	0,024000
476,000000	0,023900
475,000000	0,023600
474,000000	0,022500
473,000000	0,021200
472,000000	0,021000
471,000000	0,022400
470,000000	0,022100
469,000000	0,021900
468,000000	0,021900
467,000000	0,020700
466,000000	0,021200
465,000000	0,022400
464,000000	0,020100
463,000000	0,019800
462,000000	0,020600
461,000000	0,019900
460,000000	0,019300
459,000000	0,019400
458,000000	0,019000
457,000000	0,019100
456,000000	0,019100
455,000000	0,017400
454,000000	0,015800
453,000000	0,017600
452,000000	0,018200
451,000000	0,016700
450,000000	0,015000
449,000000	0,014700
448,000000	0,016100
447,000000	0,017000
446,000000	0,015800
445,000000	0,016200
444,000000	0,015100
443,000000	0,013100
442,000000	0,014200
441,000000	0,016400
440,000000	0,015200
439,000000	0,014100
438,000000	0,014100
437,000000	0,012500
436,000000	0,013800
435,000000	0,016800
434,000000	0,015900
433,000000	0,015300
432,000000	0,015800
431,000000	0,014600
430,000000	0,013200
429,000000	0,014500
428,000000	0,015000
427,000000	0,015300
426,000000	0,015300
425,000000	0,013700
424,000000	0,013500
423,000000	0,013200
422,000000	0,012400
421,000000	0,012500
420,000000	0,010900
419,000000	0,010700
418,000000	0,013200
417,000000	0,013300
416,000000	0,013100
415,000000	0,014100
414,000000	0,014100
413,000000	0,010800
412,000000	0,010500
411,000000	0,012700
410,000000	0,010900
409,000000	0,009100
408,000000	0,009100
407,000000	0,008400
406,000000	0,008800
405,000000	0,011100
404,000000	0,009100
403,000000	0,007000
402,000000	0,007500
401,000000	0,009400
400,000000	0,010000
399,000000	0,008500
398,000000	0,007800
397,000000	0,006400
396,000000	0,005300
395,000000	0,006200
394,000000	0,008100
393,000000	0,008200
392,000000	0,006100
391,000000	0,004400
390,000000	0,004800
389,000000	0,006300
388,000000	0,006700
387,000000	0,005800
386,000000	0,005200
385,000000	0,005600
384,000000	0,005700
383,000000	0,003300
382,000000	0,003100
381,000000	0,005200
380,000000	0,003900
379,000000	0,002600
378,000000	-0,001000
377,000000	-0,003500
376,000000	-0,003000
375,000000	-0,004200
374,000000	-0,002700
373,000000	-0,000300
372,000000	-0,000300
371,000000	-0,003300
370,000000	-0,004300
369,000000	-0,003100
368,000000	-0,002300
367,000000	-0,000600
366,000000	-0,000400
365,000000	-0,002000
364,000000	-0,004600
363,000000	-0,002100
362,000000	-0,002300
361,000000	-0,001400
360,000000	-0,000700
359,000000	-0,000900
358,000000	-0,004100
357,000000	-0,002600
356,000000	-0,001500
355,000000	-0,000400
354,000000	-0,001100
353,000000	-0,002900
352,000000	-0,003300
351,000000	-0,004400
350,000000	-0,002700
