PE UV       SUBTECH     SPECTRUM    ASCII       PEDS        4.00        
   -1
Sample4791.Sample.asc
23/08/31
22:29:39.00
23/08/31
22:29:39.00
Analyst

350,000000
1
Lambda 850
850N4111301
PerkinElmer UV WinLab 6.4.0.971 / 1.61.00 Lambda 800

0
0
2
0
0
VIS
1
1
1
RBeamAtt,SBeamAtt,150mm sphere / downward view
0
0
0
0
Fix
 
0
0,2
0
30
0
 
 
 
0
 
0
150
0
Front
100
 
S:100 R:100
 
0
0
0
 
0
 
 
 
0
 
 
0
0
0
0
0
 
 
 
 
0
0


0
0
#HDR
-1
-1
#GR
nm
EGY
1.0
0.0
850,000000
-1,000000
501
8
0,570400
0,005000
#DATA
850,000000	0,005000
849,000000	0,007100
848,000000	0,007500
847,000000	0,007600
846,000000	0,008600
845,000000	0,012000
844,000000	0,011400
843,000000	0,012200
842,000000	0,014800
841,000000	0,015000
840,000000	0,017600
839,000000	0,019300
838,000000	0,021600
837,000000	0,022200
836,000000	0,023600
835,000000	0,027500
834,000000	0,027700
833,000000	0,028600
832,000000	0,031700
831,000000	0,033900
830,000000	0,034300
829,000000	0,036700
828,000000	0,039600
827,000000	0,040000
826,000000	0,042100
825,000000	0,044100
824,000000	0,043600
823,000000	0,046900
822,000000	0,048800
821,000000	0,050200
820,000000	0,050900
819,000000	0,052100
818,000000	0,054000
817,000000	0,055400
816,000000	0,053100
815,000000	0,056700
814,000000	0,057100
813,000000	0,056800
812,000000	0,057500
811,000000	0,059300
810,000000	0,059100
809,000000	0,065700
808,000000	0,067200
807,000000	0,070300
806,000000	0,069100
805,000000	0,070800
804,000000	0,071500
803,000000	0,073000
802,000000	0,073200
801,000000	0,074300
800,000000	0,075500
799,000000	0,076600
798,000000	0,076800
797,000000	0,078900
796,000000	0,079700
795,000000	0,080200
794,000000	0,080600
793,000000	0,082900
792,000000	0,082900
791,000000	0,083800
790,000000	0,085200
789,000000	0,086500
788,000000	0,085400
787,000000	0,088000
786,000000	0,089300
785,000000	0,089600
784,000000	0,089700
783,000000	0,092500
782,000000	0,092000
781,000000	0,093800
780,000000	0,096100
779,000000	0,096800
778,000000	0,095800
777,000000	0,098500
776,000000	0,098900
775,000000	0,100000
774,000000	0,101400
773,000000	0,102800
772,000000	0,103400
771,000000	0,103100
770,000000	0,105400
769,000000	0,107400
768,000000	0,108000
767,000000	0,109000
766,000000	0,110200
765,000000	0,109800
764,000000	0,111700
763,000000	0,114500
762,000000	0,115100
761,000000	0,115700
760,000000	0,116700
759,000000	0,118900
758,000000	0,120600
757,000000	0,121600
756,000000	0,123700
755,000000	0,125300
754,000000	0,125300
753,000000	0,126700
752,000000	0,128500
751,000000	0,129800
750,000000	0,131500
749,000000	0,133600
748,000000	0,134100
747,000000	0,135700
746,000000	0,138000
745,000000	0,139900
744,000000	0,140500
743,000000	0,142300
742,000000	0,144100
741,000000	0,144200
740,000000	0,145200
739,000000	0,149400
738,000000	0,150900
737,000000	0,152300
736,000000	0,154100
735,000000	0,155700
734,000000	0,157100
733,000000	0,160500
732,000000	0,163000
731,000000	0,163300
730,000000	0,164500
729,000000	0,167900
728,000000	0,170200
727,000000	0,172400
726,000000	0,175100
725,000000	0,177300
724,000000	0,177600
723,000000	0,180200
722,000000	0,184500
721,000000	0,187200
720,000000	0,188200
719,000000	0,189900
718,000000	0,192100
717,000000	0,194300
716,000000	0,197900
715,000000	0,202600
714,000000	0,204700
713,000000	0,205800
712,000000	0,208300
711,000000	0,209600
710,000000	0,211400
709,000000	0,216600
708,000000	0,219400
707,000000	0,218700
706,000000	0,220400
705,000000	0,223700
704,000000	0,226300
703,000000	0,229900
702,000000	0,232600
701,000000	0,233000
700,000000	0,234100
699,000000	0,236700
698,000000	0,240100
697,000000	0,243300
696,000000	0,245600
695,000000	0,247200
694,000000	0,248200
693,000000	0,250000
692,000000	0,253800
691,000000	0,257700
690,000000	0,258600
689,000000	0,267600
688,000000	0,276900
687,000000	0,281600
686,000000	0,284600
685,000000	0,289100
684,000000	0,296000
683,000000	0,300200
682,000000	0,301600
681,000000	0,306300
680,000000	0,311600
679,000000	0,315700
678,000000	0,319900
677,000000	0,324200
676,000000	0,325400
675,000000	0,327000
674,000000	0,331200
673,000000	0,337100
672,000000	0,340700
671,000000	0,344500
670,000000	0,346700
669,000000	0,348400
668,000000	0,352600
667,000000	0,359500
666,000000	0,363400
665,000000	0,365500
664,000000	0,367300
663,000000	0,371200
662,000000	0,374700
661,000000	0,379900
660,000000	0,384400
659,000000	0,387700
658,000000	0,388200
657,000000	0,392100
656,000000	0,395600
655,000000	0,401200
654,000000	0,406400
653,000000	0,410700
652,000000	0,410900
651,000000	0,413500
650,000000	0,418400
649,000000	0,424400
648,000000	0,427300
647,000000	0,431200
646,000000	0,433700
645,000000	0,435600
644,000000	0,438700
643,000000	0,444700
642,000000	0,448200
641,000000	0,451300
640,000000	0,453500
639,000000	0,455500
638,000000	0,459800
637,000000	0,465800
636,000000	0,470200
635,000000	0,472300
634,000000	0,472600
633,000000	0,477300
632,000000	0,480200
631,000000	0,483700
630,000000	0,489500
629,000000	0,493500
628,000000	0,493800
627,000000	0,495400
626,000000	0,499300
625,000000	0,504500
624,000000	0,507600
623,000000	0,510900
622,000000	0,511800
621,000000	0,512800
620,000000	0,517200
619,000000	0,523300
618,000000	0,524700
617,000000	0,527400
616,000000	0,527500
615,000000	0,530600
614,000000	0,530400
613,000000	0,536900
612,000000	0,540100
611,000000	0,541900
610,000000	0,543500
609,000000	0,543400
608,000000	0,548000
607,000000	0,548800
606,000000	0,551300
605,000000	0,553400
604,000000	0,555100
603,000000	0,554200
602,000000	0,559200
601,000000	0,559000
600,000000	0,560200
599,000000	0,563700
598,000000	0,564200
597,000000	0,560500
596,000000	0,565500
595,000000	0,565100
594,000000	0,566000
593,000000	0,566800
592,000000	0,568600
591,000000	0,565600
590,000000	0,568200
589,000000	0,568600
588,000000	0,569000
587,000000	0,568800
586,000000	0,570400
585,000000	0,567500
584,000000	0,568200
583,000000	0,567100
582,000000	0,569100
581,000000	0,566800
580,000000	0,565800
579,000000	0,563200
578,000000	0,563800
577,000000	0,560200
576,000000	0,560100
575,000000	0,558900
574,000000	0,553300
573,000000	0,550300
572,000000	0,548400
571,000000	0,548200
570,000000	0,543000
569,000000	0,539600
568,000000	0,536400
567,000000	0,525100
566,000000	0,522600
565,000000	0,517100
564,000000	0,509000
563,000000	0,500100
562,000000	0,493700
561,000000	0,461900
560,000000	0,464300
559,000000	0,461000
558,000000	0,465300
557,000000	0,465200
556,000000	0,466300
555,000000	0,465500
554,000000	0,467600
553,000000	0,463900
552,000000	0,466600
551,000000	0,463500
550,000000	0,465700
549,000000	0,463500
548,000000	0,462500
547,000000	0,462500
546,000000	0,456600
545,000000	0,459200
544,000000	0,455900
543,000000	0,456100
542,000000	0,452600
541,000000	0,450100
540,000000	0,445100
539,000000	0,446200
538,000000	0,439900
537,000000	0,439600
536,000000	0,437000
535,000000	0,432100
534,000000	0,426200
533,000000	0,427800
532,000000	0,421000
531,000000	0,418000
530,000000	0,415400
529,000000	0,411000
528,000000	0,406500
527,000000	0,404100
526,000000	0,399700
525,000000	0,395400
524,000000	0,392600
523,000000	0,389100
522,000000	0,382000
521,000000	0,379800
520,000000	0,376000
519,000000	0,373500
518,000000	0,368500
517,000000	0,364500
516,000000	0,360300
515,000000	0,358300
514,000000	0,354100
513,000000	0,353400
512,000000	0,349000
511,000000	0,345400
510,000000	0,342800
509,000000	0,342200
508,000000	0,338200
507,000000	0,339100
506,000000	0,338800
505,000000	0,335000
504,000000	0,334700
503,000000	0,334000
502,000000	0,333600
501,000000	0,335300
500,000000	0,336600
499,000000	0,338300
498,000000	0,341100
497,000000	0,342200
496,000000	0,347400
495,000000	0,352500
494,000000	0,357200
493,000000	0,363900
492,000000	0,371400
491,000000	0,374700
490,000000	0,383000
489,000000	0,394600
488,000000	0,402700
487,000000	0,411600
486,000000	0,420900
485,000000	0,432000
484,000000	0,439600
483,000000	0,447800
482,000000	0,450600
481,000000	0,449000
480,000000	0,445100
479,000000	0,437400
478,000000	0,431000
477,000000	0,429200
476,000000	0,426400
475,000000	0,422700
474,000000	0,418500
473,000000	0,413900
472,000000	0,410000
471,000000	0,406900
470,000000	0,402600
469,000000	0,400200
468,000000	0,396500
467,000000	0,389100
466,000000	0,384100
465,000000	0,382900
464,000000	0,377900
463,000000	0,373500
462,000000	0,371100
461,000000	0,363600
460,000000	0,358900
459,000000	0,359400
458,000000	0,355300
457,000000	0,351500
456,000000	0,349700
455,000000	0,345000
454,000000	0,341100
453,000000	0,340400
452,000000	0,338700
451,000000	0,336300
450,000000	0,333500
449,000000	0,329900
448,000000	0,327800
447,000000	0,327500
446,000000	0,325600
445,000000	0,325400
444,000000	0,325300
443,000000	0,324600
442,000000	0,325200
441,000000	0,326200
440,000000	0,324300
439,000000	0,323500
438,000000	0,321600
437,000000	0,317700
436,000000	0,316000
435,000000	0,317400
434,000000	0,315200
433,000000	0,312000
432,000000	0,309600
431,000000	0,306200
430,000000	0,303300
429,000000	0,303000
428,000000	0,301800
427,000000	0,297800
426,000000	0,294100
425,000000	0,291700
424,000000	0,289200
423,000000	0,287900
422,000000	0,286000
421,000000	0,282800
420,000000	0,279100
419,000000	0,275300
418,000000	0,272900
417,000000	0,270000
416,000000	0,265800
415,000000	0,262000
414,000000	0,257600
413,000000	0,252200
412,000000	0,249900
411,000000	0,247800
410,000000	0,242800
409,000000	0,239000
408,000000	0,234400
407,000000	0,228100
406,000000	0,224300
405,000000	0,222200
404,000000	0,217600
403,000000	0,211500
402,000000	0,205700
401,000000	0,201000
400,000000	0,197200
399,000000	0,194100
398,000000	0,189800
397,000000	0,184600
396,000000	0,179300
395,000000	0,175400
394,000000	0,172600
393,000000	0,169000
392,000000	0,165300
391,000000	0,161500
390,000000	0,156400
389,000000	0,151300
388,000000	0,150000
387,000000	0,148100
386,000000	0,143500
385,000000	0,140400
384,000000	0,136400
383,000000	0,131400
382,000000	0,129700
381,000000	0,128200
380,000000	0,123600
379,000000	0,119400
378,000000	0,055700
377,000000	0,009300
376,000000	0,011600
375,000000	0,012700
374,000000	0,013800
373,000000	0,016800
372,000000	0,018600
371,000000	0,017600
370,000000	0,017800
369,000000	0,018100
368,000000	0,017800
367,000000	0,020300
366,000000	0,021600
365,000000	0,018800
364,000000	0,018600
363,000000	0,019600
362,000000	0,018000
361,000000	0,017700
360,000000	0,019200
359,000000	0,017700
358,000000	0,016700
357,000000	0,016000
356,000000	0,015200
355,000000	0,015900
354,000000	0,015700
353,000000	0,014000
352,000000	0,013200
351,000000	0,011700
350,000000	0,012900
