PE UV       SUBTECH     SPECTRUM    ASCII       PEDS        4.00        
   -1
Sample4806.Sample.asc
23/08/31
23:54:50.00
23/08/31
23:54:50.00
Analyst

350,000000
1
Lambda 850
850N4111301
PerkinElmer UV WinLab 6.4.0.971 / 1.61.00 Lambda 800

0
0
2
0
0
VIS
1
1
1
RBeamAtt,SBeamAtt,150mm sphere / downward view
0
0
0
0
Fix
 
0
0,2
0
30
0
 
 
 
0
 
0
150
0
Front
100
 
S:100 R:100
 
0
0
0
 
0
 
 
 
0
 
 
0
0
0
0
0
 
 
 
 
0
0


0
0
#HDR
-1
-1
#GR
nm
EGY
1.0
0.0
850,000000
-1,000000
501
8
0,505000
0,005600
#DATA
850,000000	0,005600
849,000000	0,006600
848,000000	0,005900
847,000000	0,009100
846,000000	0,007400
845,000000	0,010800
844,000000	0,011900
843,000000	0,012200
842,000000	0,013100
841,000000	0,017000
840,000000	0,016400
839,000000	0,016900
838,000000	0,019500
837,000000	0,022100
836,000000	0,022000
835,000000	0,024100
834,000000	0,025300
833,000000	0,027800
832,000000	0,027100
831,000000	0,029600
830,000000	0,032300
829,000000	0,033500
828,000000	0,032800
827,000000	0,037800
826,000000	0,036600
825,000000	0,039200
824,000000	0,041000
823,000000	0,042500
822,000000	0,042300
821,000000	0,044400
820,000000	0,044800
819,000000	0,046300
818,000000	0,045000
817,000000	0,048100
816,000000	0,048200
815,000000	0,048000
814,000000	0,049400
813,000000	0,051300
812,000000	0,049600
811,000000	0,051400
810,000000	0,051400
809,000000	0,057900
808,000000	0,060200
807,000000	0,061100
806,000000	0,060000
805,000000	0,063500
804,000000	0,062300
803,000000	0,064100
802,000000	0,064300
801,000000	0,065500
800,000000	0,064200
799,000000	0,069000
798,000000	0,068400
797,000000	0,067800
796,000000	0,070100
795,000000	0,071200
794,000000	0,070500
793,000000	0,071600
792,000000	0,072600
791,000000	0,074300
790,000000	0,072900
789,000000	0,074900
788,000000	0,075000
787,000000	0,077100
786,000000	0,076300
785,000000	0,079800
784,000000	0,078400
783,000000	0,080100
782,000000	0,080800
781,000000	0,082400
780,000000	0,081600
779,000000	0,083200
778,000000	0,085200
777,000000	0,083700
776,000000	0,083700
775,000000	0,087900
774,000000	0,088600
773,000000	0,088800
772,000000	0,089600
771,000000	0,090800
770,000000	0,090900
769,000000	0,092500
768,000000	0,093900
767,000000	0,093900
766,000000	0,094300
765,000000	0,096300
764,000000	0,097700
763,000000	0,098300
762,000000	0,099400
761,000000	0,101100
760,000000	0,100300
759,000000	0,102100
758,000000	0,103900
757,000000	0,106000
756,000000	0,106400
755,000000	0,106800
754,000000	0,108300
753,000000	0,107100
752,000000	0,109000
751,000000	0,112800
750,000000	0,113200
749,000000	0,114800
748,000000	0,116000
747,000000	0,116500
746,000000	0,118200
745,000000	0,120300
744,000000	0,123000
743,000000	0,121900
742,000000	0,122400
741,000000	0,124100
740,000000	0,125000
739,000000	0,128200
738,000000	0,130500
737,000000	0,132400
736,000000	0,131300
735,000000	0,134000
734,000000	0,135700
733,000000	0,138200
732,000000	0,139700
731,000000	0,142500
730,000000	0,143100
729,000000	0,144100
728,000000	0,147600
727,000000	0,150900
726,000000	0,152400
725,000000	0,152200
724,000000	0,154100
723,000000	0,155800
722,000000	0,158400
721,000000	0,162300
720,000000	0,164000
719,000000	0,165200
718,000000	0,166100
717,000000	0,168500
716,000000	0,170800
715,000000	0,175200
714,000000	0,178500
713,000000	0,179100
712,000000	0,179400
711,000000	0,183300
710,000000	0,185200
709,000000	0,186700
708,000000	0,189400
707,000000	0,190400
706,000000	0,190800
705,000000	0,192500
704,000000	0,195400
703,000000	0,198700
702,000000	0,200300
701,000000	0,201000
700,000000	0,202000
699,000000	0,203300
698,000000	0,205500
697,000000	0,209900
696,000000	0,211200
695,000000	0,209600
694,000000	0,211800
693,000000	0,213000
692,000000	0,213700
691,000000	0,216600
690,000000	0,217500
689,000000	0,225600
688,000000	0,231900
687,000000	0,234100
686,000000	0,237700
685,000000	0,242000
684,000000	0,245700
683,000000	0,248100
682,000000	0,249700
681,000000	0,252300
680,000000	0,255200
679,000000	0,261200
678,000000	0,265400
677,000000	0,267600
676,000000	0,268800
675,000000	0,270400
674,000000	0,273200
673,000000	0,279100
672,000000	0,283800
671,000000	0,286600
670,000000	0,287100
669,000000	0,291800
668,000000	0,294500
667,000000	0,298100
666,000000	0,303900
665,000000	0,307400
664,000000	0,309000
663,000000	0,311400
662,000000	0,316000
661,000000	0,321800
660,000000	0,325400
659,000000	0,329600
658,000000	0,330500
657,000000	0,333600
656,000000	0,338200
655,000000	0,343700
654,000000	0,346800
653,000000	0,349100
652,000000	0,352100
651,000000	0,353900
650,000000	0,356900
649,000000	0,362800
648,000000	0,367500
647,000000	0,369700
646,000000	0,370700
645,000000	0,374500
644,000000	0,378000
643,000000	0,383000
642,000000	0,387300
641,000000	0,391100
640,000000	0,391400
639,000000	0,394400
638,000000	0,399400
637,000000	0,402900
636,000000	0,406300
635,000000	0,409400
634,000000	0,410900
633,000000	0,411700
632,000000	0,416200
631,000000	0,421100
630,000000	0,423200
629,000000	0,426000
628,000000	0,428300
627,000000	0,429500
626,000000	0,432900
625,000000	0,437500
624,000000	0,439600
623,000000	0,443000
622,000000	0,445600
621,000000	0,446100
620,000000	0,449300
619,000000	0,453200
618,000000	0,457700
617,000000	0,458700
616,000000	0,460100
615,000000	0,461200
614,000000	0,463700
613,000000	0,468400
612,000000	0,470800
611,000000	0,472100
610,000000	0,473500
609,000000	0,472400
608,000000	0,478600
607,000000	0,479900
606,000000	0,481200
605,000000	0,484300
604,000000	0,486400
603,000000	0,483600
602,000000	0,487800
601,000000	0,491500
600,000000	0,491100
599,000000	0,493100
598,000000	0,494500
597,000000	0,492200
596,000000	0,497600
595,000000	0,496200
594,000000	0,499300
593,000000	0,499400
592,000000	0,500800
591,000000	0,498600
590,000000	0,503300
589,000000	0,499400
588,000000	0,503600
587,000000	0,503500
586,000000	0,504100
585,000000	0,499800
584,000000	0,505000
583,000000	0,501300
582,000000	0,502900
581,000000	0,502500
580,000000	0,504000
579,000000	0,497700
578,000000	0,500700
577,000000	0,497700
576,000000	0,499400
575,000000	0,495300
574,000000	0,496800
573,000000	0,488900
572,000000	0,490300
571,000000	0,487100
570,000000	0,485500
569,000000	0,478900
568,000000	0,477100
567,000000	0,470000
566,000000	0,467600
565,000000	0,457700
564,000000	0,453600
563,000000	0,447900
562,000000	0,437400
561,000000	0,412600
560,000000	0,414900
559,000000	0,413700
558,000000	0,417200
557,000000	0,413400
556,000000	0,420000
555,000000	0,418100
554,000000	0,420300
553,000000	0,414700
552,000000	0,421000
551,000000	0,416300
550,000000	0,419300
549,000000	0,417900
548,000000	0,417800
547,000000	0,414900
546,000000	0,413000
545,000000	0,413700
544,000000	0,410300
543,000000	0,408900
542,000000	0,410700
541,000000	0,403300
540,000000	0,400300
539,000000	0,399100
538,000000	0,399800
537,000000	0,395000
536,000000	0,394100
535,000000	0,388600
534,000000	0,384200
533,000000	0,380400
532,000000	0,379000
531,000000	0,375600
530,000000	0,370900
529,000000	0,368300
528,000000	0,363000
527,000000	0,358600
526,000000	0,355400
525,000000	0,353300
524,000000	0,346600
523,000000	0,342500
522,000000	0,338100
521,000000	0,334400
520,000000	0,330000
519,000000	0,326400
518,000000	0,321300
517,000000	0,318200
516,000000	0,311000
515,000000	0,310600
514,000000	0,304600
513,000000	0,300900
512,000000	0,299200
511,000000	0,294900
510,000000	0,288000
509,000000	0,288600
508,000000	0,284000
507,000000	0,282500
506,000000	0,277400
505,000000	0,277000
504,000000	0,274100
503,000000	0,272300
502,000000	0,271800
501,000000	0,270900
500,000000	0,271300
499,000000	0,269700
498,000000	0,272700
497,000000	0,270900
496,000000	0,270300
495,000000	0,277800
494,000000	0,280200
493,000000	0,281600
492,000000	0,288500
491,000000	0,291300
490,000000	0,295500
489,000000	0,302600
488,000000	0,312000
487,000000	0,319900
486,000000	0,324200
485,000000	0,336000
484,000000	0,343500
483,000000	0,352300
482,000000	0,358300
481,000000	0,359500
480,000000	0,358600
479,000000	0,352900
478,000000	0,348400
477,000000	0,349100
476,000000	0,344700
475,000000	0,342500
474,000000	0,341500
473,000000	0,334700
472,000000	0,331400
471,000000	0,331000
470,000000	0,328400
469,000000	0,323200
468,000000	0,321500
467,000000	0,316300
466,000000	0,310600
465,000000	0,310900
464,000000	0,305800
463,000000	0,302000
462,000000	0,299700
461,000000	0,293600
460,000000	0,290600
459,000000	0,287600
458,000000	0,284900
457,000000	0,282700
456,000000	0,276000
455,000000	0,275200
454,000000	0,272600
453,000000	0,271300
452,000000	0,266900
451,000000	0,265100
450,000000	0,262600
449,000000	0,257800
448,000000	0,254400
447,000000	0,255100
446,000000	0,251300
445,000000	0,251800
444,000000	0,251700
443,000000	0,249600
442,000000	0,247500
441,000000	0,249400
440,000000	0,249700
439,000000	0,246600
438,000000	0,245000
437,000000	0,242300
436,000000	0,241000
435,000000	0,240100
434,000000	0,239900
433,000000	0,238100
432,000000	0,235500
431,000000	0,232700
430,000000	0,231400
429,000000	0,232200
428,000000	0,229900
427,000000	0,228800
426,000000	0,225500
425,000000	0,221300
424,000000	0,222800
423,000000	0,222300
422,000000	0,218200
421,000000	0,215300
420,000000	0,212100
419,000000	0,209200
418,000000	0,207600
417,000000	0,206900
416,000000	0,205000
415,000000	0,200900
414,000000	0,198400
413,000000	0,194100
412,000000	0,190500
411,000000	0,190900
410,000000	0,188800
409,000000	0,183900
408,000000	0,180400
407,000000	0,178400
406,000000	0,175600
405,000000	0,171400
404,000000	0,167500
403,000000	0,164400
402,000000	0,158700
401,000000	0,155700
400,000000	0,153500
399,000000	0,150200
398,000000	0,147200
397,000000	0,142600
396,000000	0,138800
395,000000	0,135500
394,000000	0,133000
393,000000	0,132100
392,000000	0,127400
391,000000	0,123000
390,000000	0,121200
389,000000	0,117400
388,000000	0,115400
387,000000	0,113900
386,000000	0,110200
385,000000	0,107200
384,000000	0,103000
383,000000	0,100500
382,000000	0,098600
381,000000	0,096300
380,000000	0,094600
379,000000	0,092900
378,000000	0,045000
377,000000	0,007900
376,000000	0,008100
375,000000	0,009500
374,000000	0,010200
373,000000	0,012000
372,000000	0,014300
371,000000	0,013600
370,000000	0,013400
369,000000	0,014400
368,000000	0,013900
367,000000	0,014400
366,000000	0,016100
365,000000	0,016400
364,000000	0,015200
363,000000	0,012900
362,000000	0,012800
361,000000	0,014400
360,000000	0,014400
359,000000	0,012600
358,000000	0,011700
357,000000	0,011400
356,000000	0,009800
355,000000	0,011900
354,000000	0,011500
353,000000	0,009200
352,000000	0,008200
351,000000	0,008800
350,000000	0,008300
