PE UV       SUBTECH     SPECTRUM    ASCII       PEDS        4.00        
   -1
Sample4796.Sample.asc
23/08/31
22:55:49.00
23/08/31
22:55:49.00
Analyst

350,000000
1
Lambda 850
850N4111301
PerkinElmer UV WinLab 6.4.0.971 / 1.61.00 Lambda 800

0
0
2
0
0
VIS
1
1
1
RBeamAtt,SBeamAtt,150mm sphere / downward view
0
0
0
0
Fix
 
0
0,2
0
30
0
 
 
 
0
 
0
150
0
Front
100
 
S:100 R:100
 
0
0
0
 
0
 
 
 
0
 
 
0
0
0
0
0
 
 
 
 
0
0


0
0
#HDR
-1
-1
#GR
nm
EGY
1.0
0.0
850,000000
-1,000000
501
8
0,523300
0,004200
#DATA
850,000000	0,004700
849,000000	0,004200
848,000000	0,007200
847,000000	0,007600
846,000000	0,006800
845,000000	0,010300
844,000000	0,011300
843,000000	0,011300
842,000000	0,012200
841,000000	0,014400
840,000000	0,015500
839,000000	0,016700
838,000000	0,019900
837,000000	0,020700
836,000000	0,020000
835,000000	0,023600
834,000000	0,024200
833,000000	0,026200
832,000000	0,028200
831,000000	0,030500
830,000000	0,030400
829,000000	0,034300
828,000000	0,035000
827,000000	0,037300
826,000000	0,037700
825,000000	0,039400
824,000000	0,041200
823,000000	0,042900
822,000000	0,041300
821,000000	0,045200
820,000000	0,046900
819,000000	0,046200
818,000000	0,046400
817,000000	0,049200
816,000000	0,048300
815,000000	0,050300
814,000000	0,051600
813,000000	0,050400
812,000000	0,051600
811,000000	0,054400
810,000000	0,054000
809,000000	0,060000
808,000000	0,061200
807,000000	0,062100
806,000000	0,063400
805,000000	0,064500
804,000000	0,064100
803,000000	0,065800
802,000000	0,066900
801,000000	0,067000
800,000000	0,067200
799,000000	0,070100
798,000000	0,070000
797,000000	0,070000
796,000000	0,071000
795,000000	0,072600
794,000000	0,071100
793,000000	0,073600
792,000000	0,074700
791,000000	0,075500
790,000000	0,075400
789,000000	0,077300
788,000000	0,077000
787,000000	0,078900
786,000000	0,080900
785,000000	0,081600
784,000000	0,080600
783,000000	0,082800
782,000000	0,083700
781,000000	0,085200
780,000000	0,085500
779,000000	0,086800
778,000000	0,086800
777,000000	0,086700
776,000000	0,087400
775,000000	0,090400
774,000000	0,090900
773,000000	0,091600
772,000000	0,093500
771,000000	0,092600
770,000000	0,093300
769,000000	0,096400
768,000000	0,096700
767,000000	0,096800
766,000000	0,098500
765,000000	0,098700
764,000000	0,098100
763,000000	0,100700
762,000000	0,103000
761,000000	0,103700
760,000000	0,103500
759,000000	0,104500
758,000000	0,106300
757,000000	0,109300
756,000000	0,110400
755,000000	0,112100
754,000000	0,112100
753,000000	0,113000
752,000000	0,114800
751,000000	0,116800
750,000000	0,117400
749,000000	0,119400
748,000000	0,121400
747,000000	0,121300
746,000000	0,122300
745,000000	0,125400
744,000000	0,125900
743,000000	0,126400
742,000000	0,127500
741,000000	0,128300
740,000000	0,129500
739,000000	0,133500
738,000000	0,135400
737,000000	0,135700
736,000000	0,137000
735,000000	0,139400
734,000000	0,141300
733,000000	0,143400
732,000000	0,146400
731,000000	0,148100
730,000000	0,147800
729,000000	0,149600
728,000000	0,153800
727,000000	0,156500
726,000000	0,157300
725,000000	0,159400
724,000000	0,161500
723,000000	0,163300
722,000000	0,165500
721,000000	0,168200
720,000000	0,170400
719,000000	0,172600
718,000000	0,175100
717,000000	0,176800
716,000000	0,179200
715,000000	0,184000
714,000000	0,186700
713,000000	0,185700
712,000000	0,186800
711,000000	0,190400
710,000000	0,192900
709,000000	0,196000
708,000000	0,197600
707,000000	0,198500
706,000000	0,200200
705,000000	0,201500
704,000000	0,204300
703,000000	0,208200
702,000000	0,210800
701,000000	0,212300
700,000000	0,212900
699,000000	0,214100
698,000000	0,217900
697,000000	0,221800
696,000000	0,223000
695,000000	0,223600
694,000000	0,225500
693,000000	0,226900
692,000000	0,229100
691,000000	0,232800
690,000000	0,234900
689,000000	0,244500
688,000000	0,252100
687,000000	0,255900
686,000000	0,260500
685,000000	0,264900
684,000000	0,269400
683,000000	0,273800
682,000000	0,275800
681,000000	0,278800
680,000000	0,283000
679,000000	0,287300
678,000000	0,291800
677,000000	0,296200
676,000000	0,298000
675,000000	0,299500
674,000000	0,301800
673,000000	0,306800
672,000000	0,311300
671,000000	0,314400
670,000000	0,315900
669,000000	0,318900
668,000000	0,321600
667,000000	0,326300
666,000000	0,331100
665,000000	0,334100
664,000000	0,334600
663,000000	0,337900
662,000000	0,341500
661,000000	0,346900
660,000000	0,351400
659,000000	0,355200
658,000000	0,355300
657,000000	0,357100
656,000000	0,361600
655,000000	0,367300
654,000000	0,370100
653,000000	0,373600
652,000000	0,375500
651,000000	0,377000
650,000000	0,380300
649,000000	0,387100
648,000000	0,391300
647,000000	0,393700
646,000000	0,394900
645,000000	0,396300
644,000000	0,400100
643,000000	0,407600
642,000000	0,411900
641,000000	0,413300
640,000000	0,413500
639,000000	0,417000
638,000000	0,420900
637,000000	0,424500
636,000000	0,429400
635,000000	0,432800
634,000000	0,432300
633,000000	0,434500
632,000000	0,438700
631,000000	0,443500
630,000000	0,446400
629,000000	0,449800
628,000000	0,449600
627,000000	0,451800
626,000000	0,456000
625,000000	0,462100
624,000000	0,463700
623,000000	0,466500
622,000000	0,468500
621,000000	0,469400
620,000000	0,471200
619,000000	0,478000
618,000000	0,480500
617,000000	0,481500
616,000000	0,482600
615,000000	0,483100
614,000000	0,485700
613,000000	0,490800
612,000000	0,494000
611,000000	0,495400
610,000000	0,495500
609,000000	0,496300
608,000000	0,499500
607,000000	0,502600
606,000000	0,504200
605,000000	0,508300
604,000000	0,509000
603,000000	0,506100
602,000000	0,510500
601,000000	0,512500
600,000000	0,512800
599,000000	0,514100
598,000000	0,515500
597,000000	0,513300
596,000000	0,517300
595,000000	0,518900
594,000000	0,519700
593,000000	0,519300
592,000000	0,521000
591,000000	0,519000
590,000000	0,520900
589,000000	0,521400
588,000000	0,523300
587,000000	0,522200
586,000000	0,521800
585,000000	0,520100
584,000000	0,523200
583,000000	0,521000
582,000000	0,519900
581,000000	0,520600
580,000000	0,521300
579,000000	0,515100
578,000000	0,515500
577,000000	0,515600
576,000000	0,513500
575,000000	0,512700
574,000000	0,512800
573,000000	0,504000
572,000000	0,505900
571,000000	0,503800
570,000000	0,499800
569,000000	0,494100
568,000000	0,491400
567,000000	0,482300
566,000000	0,477700
565,000000	0,474300
564,000000	0,467400
563,000000	0,459900
562,000000	0,450400
561,000000	0,421400
560,000000	0,421000
559,000000	0,422300
558,000000	0,424100
557,000000	0,426200
556,000000	0,427500
555,000000	0,427500
554,000000	0,428400
553,000000	0,425300
552,000000	0,427600
551,000000	0,425800
550,000000	0,427400
549,000000	0,426900
548,000000	0,424400
547,000000	0,421500
546,000000	0,420400
545,000000	0,419800
544,000000	0,418300
543,000000	0,418600
542,000000	0,416300
541,000000	0,413300
540,000000	0,407600
539,000000	0,409400
538,000000	0,403800
537,000000	0,402100
536,000000	0,400000
535,000000	0,397700
534,000000	0,390300
533,000000	0,392400
532,000000	0,387500
531,000000	0,384000
530,000000	0,380700
529,000000	0,378000
528,000000	0,370200
527,000000	0,368200
526,000000	0,365100
525,000000	0,362800
524,000000	0,357700
523,000000	0,354400
522,000000	0,348500
521,000000	0,347400
520,000000	0,341900
519,000000	0,339900
518,000000	0,335900
517,000000	0,331600
516,000000	0,326900
515,000000	0,327100
514,000000	0,322300
513,000000	0,320500
512,000000	0,318400
511,000000	0,312900
510,000000	0,310100
509,000000	0,310100
508,000000	0,307200
507,000000	0,305500
506,000000	0,304100
505,000000	0,302100
504,000000	0,301900
503,000000	0,300700
502,000000	0,301300
501,000000	0,302500
500,000000	0,302800
499,000000	0,305300
498,000000	0,307700
497,000000	0,307400
496,000000	0,312000
495,000000	0,317600
494,000000	0,320100
493,000000	0,324000
492,000000	0,330800
491,000000	0,336700
490,000000	0,343200
489,000000	0,352100
488,000000	0,360600
487,000000	0,368700
486,000000	0,373600
485,000000	0,387000
484,000000	0,394100
483,000000	0,402200
482,000000	0,406800
481,000000	0,405700
480,000000	0,401800
479,000000	0,395400
478,000000	0,390700
477,000000	0,388500
476,000000	0,384600
475,000000	0,382100
474,000000	0,379700
473,000000	0,373900
472,000000	0,369500
471,000000	0,369400
470,000000	0,365200
469,000000	0,360700
468,000000	0,356200
467,000000	0,353200
466,000000	0,347800
465,000000	0,346400
464,000000	0,342600
463,000000	0,337400
462,000000	0,335000
461,000000	0,329000
460,000000	0,324100
459,000000	0,322800
458,000000	0,320100
457,000000	0,317100
456,000000	0,313500
455,000000	0,308800
454,000000	0,306300
453,000000	0,306100
452,000000	0,304300
451,000000	0,302500
450,000000	0,299800
449,000000	0,295800
448,000000	0,293600
447,000000	0,293700
446,000000	0,292600
445,000000	0,292300
444,000000	0,292100
443,000000	0,289900
442,000000	0,289400
441,000000	0,292000
440,000000	0,291100
439,000000	0,289400
438,000000	0,288000
437,000000	0,284400
436,000000	0,282600
435,000000	0,283400
434,000000	0,282200
433,000000	0,279700
432,000000	0,277700
431,000000	0,274200
430,000000	0,270900
429,000000	0,270700
428,000000	0,269900
427,000000	0,268000
426,000000	0,264300
425,000000	0,260300
424,000000	0,258600
423,000000	0,257300
422,000000	0,253900
421,000000	0,251400
420,000000	0,247800
419,000000	0,243900
418,000000	0,242800
417,000000	0,241200
416,000000	0,237100
415,000000	0,234100
414,000000	0,230900
413,000000	0,225700
412,000000	0,222500
411,000000	0,221900
410,000000	0,218300
409,000000	0,212400
408,000000	0,208500
407,000000	0,205700
406,000000	0,201600
405,000000	0,197900
404,000000	0,193700
403,000000	0,188700
402,000000	0,183100
401,000000	0,178500
400,000000	0,175700
399,000000	0,172500
398,000000	0,168600
397,000000	0,164600
396,000000	0,159500
395,000000	0,154800
394,000000	0,153500
393,000000	0,151400
392,000000	0,146000
391,000000	0,141700
390,000000	0,138200
389,000000	0,133500
388,000000	0,131600
387,000000	0,130900
386,000000	0,127000
385,000000	0,122200
384,000000	0,118800
383,000000	0,115100
382,000000	0,113500
381,000000	0,112600
380,000000	0,109700
379,000000	0,105600
378,000000	0,049300
377,000000	0,007500
376,000000	0,009500
375,000000	0,011200
374,000000	0,011400
373,000000	0,015300
372,000000	0,017900
371,000000	0,016500
370,000000	0,017600
369,000000	0,018500
368,000000	0,017000
367,000000	0,017300
366,000000	0,018600
365,000000	0,017800
364,000000	0,016000
363,000000	0,014600
362,000000	0,014700
361,000000	0,016400
360,000000	0,016800
359,000000	0,015100
358,000000	0,013800
357,000000	0,012100
356,000000	0,013200
355,000000	0,015100
354,000000	0,014400
353,000000	0,011400
352,000000	0,011700
351,000000	0,010100
350,000000	0,010200
