PE UV       SUBTECH     SPECTRUM    ASCII       PEDS        4.00        
   -1
Sample4772.Sample.asc
23/08/24
02:13:42.00
23/08/24
02:13:42.00
Analyst

350,000000
1
Lambda 850
850N4111301
PerkinElmer UV WinLab 6.4.0.971 / 1.61.00 Lambda 800

0
0
2
0
0
VIS
1
1
1
RBeamAtt,SBeamAtt,150mm sphere / downward view
0
0
0
0
Fix
 
0
0,2
0
30
0
 
 
 
0
 
0
150
0
Front
100
 
S:100 R:100
 
0
0
0
 
0
 
 
 
0
 
 
0
0
0
0
0
 
 
 
 
0
0


0
0
#HDR
-1
-1
#GR
nm
EGY
1.0
0.0
800,000000
-1,000000
451
8
0,421500
0,004200
#DATA
800,000000	0,052700
799,000000	0,051600
798,000000	0,054200
797,000000	0,054900
796,000000	0,055000
795,000000	0,054500
794,000000	0,055300
793,000000	0,055800
792,000000	0,055400
791,000000	0,057800
790,000000	0,057700
789,000000	0,059300
788,000000	0,058700
787,000000	0,060500
786,000000	0,060200
785,000000	0,061900
784,000000	0,063200
783,000000	0,065300
782,000000	0,063500
781,000000	0,064300
780,000000	0,067000
779,000000	0,066200
778,000000	0,066200
777,000000	0,068900
776,000000	0,069600
775,000000	0,068100
774,000000	0,070200
773,000000	0,071400
772,000000	0,071900
771,000000	0,072200
770,000000	0,074000
769,000000	0,073800
768,000000	0,075600
767,000000	0,075900
766,000000	0,077400
765,000000	0,076600
764,000000	0,077400
763,000000	0,079900
762,000000	0,080400
761,000000	0,078400
760,000000	0,081900
759,000000	0,083700
758,000000	0,084000
757,000000	0,085100
756,000000	0,087500
755,000000	0,085600
754,000000	0,087100
753,000000	0,089600
752,000000	0,089200
751,000000	0,090200
750,000000	0,092100
749,000000	0,092600
748,000000	0,094400
747,000000	0,096000
746,000000	0,097800
745,000000	0,096900
744,000000	0,097400
743,000000	0,099500
742,000000	0,101700
741,000000	0,102100
740,000000	0,103100
739,000000	0,104300
738,000000	0,104400
737,000000	0,106400
736,000000	0,109600
735,000000	0,108600
734,000000	0,110800
733,000000	0,112800
732,000000	0,114100
731,000000	0,113900
730,000000	0,116700
729,000000	0,118800
728,000000	0,119600
727,000000	0,120000
726,000000	0,122100
725,000000	0,123900
724,000000	0,125900
723,000000	0,128600
722,000000	0,129800
721,000000	0,130200
720,000000	0,130500
719,000000	0,133600
718,000000	0,135300
717,000000	0,137300
716,000000	0,140200
715,000000	0,141700
714,000000	0,141400
713,000000	0,143900
712,000000	0,147800
711,000000	0,148300
710,000000	0,149200
709,000000	0,151900
708,000000	0,152800
707,000000	0,153900
706,000000	0,156600
705,000000	0,158500
704,000000	0,159100
703,000000	0,159800
702,000000	0,161300
701,000000	0,162400
700,000000	0,166200
699,000000	0,168900
698,000000	0,169800
697,000000	0,169400
696,000000	0,171300
695,000000	0,173400
694,000000	0,175500
693,000000	0,176500
692,000000	0,179200
691,000000	0,179400
690,000000	0,184200
689,000000	0,193000
688,000000	0,195900
687,000000	0,198400
686,000000	0,200500
685,000000	0,205300
684,000000	0,208900
683,000000	0,211000
682,000000	0,213100
681,000000	0,217100
680,000000	0,220800
679,000000	0,223300
678,000000	0,225500
677,000000	0,227500
676,000000	0,228900
675,000000	0,231800
674,000000	0,235100
673,000000	0,239200
672,000000	0,241300
671,000000	0,243400
670,000000	0,245200
669,000000	0,247000
668,000000	0,250400
667,000000	0,255000
666,000000	0,257400
665,000000	0,258400
664,000000	0,260200
663,000000	0,263100
662,000000	0,265900
661,000000	0,269900
660,000000	0,273100
659,000000	0,274100
658,000000	0,276200
657,000000	0,279300
656,000000	0,282700
655,000000	0,286500
654,000000	0,289700
653,000000	0,291000
652,000000	0,291200
651,000000	0,294100
650,000000	0,298300
649,000000	0,302500
648,000000	0,305100
647,000000	0,306000
646,000000	0,307700
645,000000	0,310200
644,000000	0,313800
643,000000	0,318100
642,000000	0,320400
641,000000	0,321200
640,000000	0,324100
639,000000	0,326200
638,000000	0,329800
637,000000	0,335100
636,000000	0,337300
635,000000	0,336800
634,000000	0,338700
633,000000	0,342600
632,000000	0,346200
631,000000	0,349100
630,000000	0,351700
629,000000	0,352600
628,000000	0,353300
627,000000	0,356500
626,000000	0,360900
625,000000	0,362800
624,000000	0,365700
623,000000	0,367000
622,000000	0,367400
621,000000	0,369700
620,000000	0,375100
619,000000	0,378300
618,000000	0,378900
617,000000	0,379400
616,000000	0,381000
615,000000	0,384100
614,000000	0,386800
613,000000	0,389300
612,000000	0,391400
611,000000	0,390400
610,000000	0,391600
609,000000	0,394300
608,000000	0,397300
607,000000	0,399700
606,000000	0,402100
605,000000	0,400800
604,000000	0,400900
603,000000	0,404700
602,000000	0,407500
601,000000	0,408000
600,000000	0,409600
599,000000	0,410100
598,000000	0,409800
597,000000	0,411300
596,000000	0,414000
595,000000	0,415100
594,000000	0,415000
593,000000	0,415400
592,000000	0,415000
591,000000	0,415200
590,000000	0,419100
589,000000	0,420400
588,000000	0,419000
587,000000	0,417900
586,000000	0,418000
585,000000	0,419800
584,000000	0,419700
583,000000	0,420600
582,000000	0,421500
581,000000	0,420000
580,000000	0,417000
579,000000	0,419300
578,000000	0,417800
577,000000	0,417100
576,000000	0,417800
575,000000	0,415400
574,000000	0,411400
573,000000	0,413600
572,000000	0,411600
571,000000	0,408100
570,000000	0,406500
569,000000	0,404100
568,000000	0,398300
567,000000	0,394900
566,000000	0,391700
565,000000	0,389000
564,000000	0,382800
563,000000	0,377300
562,000000	0,368500
561,000000	0,351400
560,000000	0,349200
559,000000	0,346600
558,000000	0,350700
557,000000	0,352000
556,000000	0,352200
555,000000	0,352900
554,000000	0,354400
553,000000	0,352100
552,000000	0,352500
551,000000	0,353200
550,000000	0,353000
549,000000	0,351900
548,000000	0,353800
547,000000	0,350700
546,000000	0,349200
545,000000	0,347200
544,000000	0,348200
543,000000	0,346600
542,000000	0,345400
541,000000	0,340300
540,000000	0,342400
539,000000	0,337600
538,000000	0,335200
537,000000	0,335300
536,000000	0,332400
535,000000	0,326000
534,000000	0,326500
533,000000	0,322100
532,000000	0,319200
531,000000	0,318400
530,000000	0,316000
529,000000	0,306800
528,000000	0,307600
527,000000	0,303500
526,000000	0,300200
525,000000	0,295900
524,000000	0,294100
523,000000	0,287500
522,000000	0,286900
521,000000	0,281700
520,000000	0,278200
519,000000	0,275200
518,000000	0,272500
517,000000	0,265700
516,000000	0,265800
515,000000	0,260700
514,000000	0,258900
513,000000	0,257100
512,000000	0,252300
511,000000	0,245700
510,000000	0,247900
509,000000	0,243800
508,000000	0,240700
507,000000	0,239300
506,000000	0,237400
505,000000	0,232000
504,000000	0,233800
503,000000	0,231800
502,000000	0,231100
501,000000	0,231600
500,000000	0,231600
499,000000	0,227700
498,000000	0,232600
497,000000	0,232400
496,000000	0,235600
495,000000	0,236400
494,000000	0,238800
493,000000	0,243000
492,000000	0,246400
491,000000	0,248800
490,000000	0,256800
489,000000	0,262500
488,000000	0,266700
487,000000	0,276500
486,000000	0,282000
485,000000	0,289900
484,000000	0,299800
483,000000	0,308000
482,000000	0,312700
481,000000	0,313400
480,000000	0,314900
479,000000	0,310800
478,000000	0,307900
477,000000	0,305700
476,000000	0,305100
475,000000	0,303000
474,000000	0,297100
473,000000	0,294900
472,000000	0,295900
471,000000	0,292000
470,000000	0,288700
469,000000	0,287800
468,000000	0,282200
467,000000	0,277800
466,000000	0,278200
465,000000	0,273900
464,000000	0,269600
463,000000	0,269600
462,000000	0,263600
461,000000	0,257700
460,000000	0,258400
459,000000	0,255900
458,000000	0,252100
457,000000	0,250100
456,000000	0,245500
455,000000	0,241400
454,000000	0,241500
453,000000	0,238700
452,000000	0,236700
451,000000	0,236100
450,000000	0,230300
449,000000	0,229100
448,000000	0,228400
447,000000	0,225800
446,000000	0,225400
445,000000	0,222100
444,000000	0,223500
443,000000	0,223900
442,000000	0,225900
441,000000	0,223600
440,000000	0,221900
439,000000	0,223300
438,000000	0,219500
437,000000	0,216200
436,000000	0,217900
435,000000	0,216500
434,000000	0,214200
433,000000	0,213000
432,000000	0,211000
431,000000	0,206700
430,000000	0,207900
429,000000	0,207100
428,000000	0,205800
427,000000	0,203600
426,000000	0,200200
425,000000	0,197400
424,000000	0,196800
423,000000	0,195000
422,000000	0,193700
421,000000	0,191400
420,000000	0,186300
419,000000	0,183700
418,000000	0,184600
417,000000	0,182000
416,000000	0,179300
415,000000	0,177300
414,000000	0,172000
413,000000	0,169500
412,000000	0,171100
411,000000	0,167600
410,000000	0,163100
409,000000	0,159300
408,000000	0,155700
407,000000	0,152500
406,000000	0,151100
405,000000	0,148700
404,000000	0,145800
403,000000	0,140700
402,000000	0,136400
401,000000	0,133100
400,000000	0,132300
399,000000	0,129200
398,000000	0,126200
397,000000	0,121400
396,000000	0,117600
395,000000	0,115900
394,000000	0,115200
393,000000	0,111000
392,000000	0,108300
391,000000	0,105900
390,000000	0,101100
389,000000	0,098400
388,000000	0,099400
387,000000	0,096000
386,000000	0,092400
385,000000	0,089900
384,000000	0,086300
383,000000	0,084200
382,000000	0,084300
381,000000	0,082600
380,000000	0,079100
379,000000	0,076400
378,000000	0,046900
377,000000	0,004200
376,000000	0,005300
375,000000	0,005700
374,000000	0,006200
373,000000	0,008900
372,000000	0,011100
371,000000	0,010800
370,000000	0,010900
369,000000	0,010400
368,000000	0,009900
367,000000	0,012200
366,000000	0,013500
365,000000	0,011400
364,000000	0,010500
363,000000	0,010900
362,000000	0,009300
361,000000	0,009400
360,000000	0,011000
359,000000	0,009500
358,000000	0,008000
357,000000	0,008300
356,000000	0,007400
355,000000	0,007400
354,000000	0,009200
353,000000	0,008600
352,000000	0,007000
351,000000	0,005700
350,000000	0,005200
