PE UV       SUBTECH     SPECTRUM    ASCII       PEDS        4.00        
   -1
Sample4778.Sample.asc
23/08/24
02:49:32.00
23/08/24
02:49:32.00
Analyst

350,000000
1
Lambda 850
850N4111301
PerkinElmer UV WinLab 6.4.0.971 / 1.61.00 Lambda 800

0
0
2
0
0
VIS
1
1
1
RBeamAtt,SBeamAtt,150mm sphere / downward view
0
0
0
0
Fix
 
0
0,2
0
30
0
 
 
 
0
 
0
150
0
Front
100
 
S:100 R:100
 
0
0
0
 
0
 
 
 
0
 
 
0
0
0
0
0
 
 
 
 
0
0


0
0
#HDR
-1
-1
#GR
nm
EGY
1.0
0.0
800,000000
-1,000000
451
8
0,167700
-0,004800
#DATA
800,000000	0,032300
799,000000	0,033100
798,000000	0,032800
797,000000	0,033300
796,000000	0,035000
795,000000	0,035600
794,000000	0,034000
793,000000	0,034500
792,000000	0,035900
791,000000	0,035400
790,000000	0,036700
789,000000	0,037800
788,000000	0,036800
787,000000	0,037200
786,000000	0,040200
785,000000	0,039600
784,000000	0,038600
783,000000	0,040000
782,000000	0,041800
781,000000	0,040300
780,000000	0,040500
779,000000	0,041300
778,000000	0,043600
777,000000	0,042100
776,000000	0,043200
775,000000	0,042700
774,000000	0,044100
773,000000	0,042300
772,000000	0,044700
771,000000	0,045100
770,000000	0,044800
769,000000	0,046000
768,000000	0,048000
767,000000	0,045700
766,000000	0,047000
765,000000	0,049200
764,000000	0,048300
763,000000	0,047500
762,000000	0,050700
761,000000	0,048100
760,000000	0,049400
759,000000	0,050300
758,000000	0,051400
757,000000	0,051800
756,000000	0,052200
755,000000	0,053400
754,000000	0,054300
753,000000	0,054400
752,000000	0,055700
751,000000	0,056500
750,000000	0,056000
749,000000	0,055600
748,000000	0,057800
747,000000	0,057800
746,000000	0,057900
745,000000	0,059100
744,000000	0,059100
743,000000	0,059500
742,000000	0,061000
741,000000	0,061600
740,000000	0,061700
739,000000	0,062000
738,000000	0,063100
737,000000	0,063700
736,000000	0,064600
735,000000	0,066300
734,000000	0,067200
733,000000	0,066000
732,000000	0,067600
731,000000	0,069800
730,000000	0,069200
729,000000	0,069800
728,000000	0,071700
727,000000	0,072200
726,000000	0,071600
725,000000	0,072500
724,000000	0,074200
723,000000	0,074300
722,000000	0,075300
721,000000	0,076500
720,000000	0,075800
719,000000	0,076400
718,000000	0,078100
717,000000	0,078100
716,000000	0,077500
715,000000	0,078300
714,000000	0,078100
713,000000	0,076800
712,000000	0,078200
711,000000	0,079500
710,000000	0,078500
709,000000	0,076500
708,000000	0,075800
707,000000	0,075400
706,000000	0,074400
705,000000	0,073200
704,000000	0,072300
703,000000	0,068800
702,000000	0,066300
701,000000	0,064900
700,000000	0,063500
699,000000	0,060200
698,000000	0,057200
697,000000	0,053300
696,000000	0,048600
695,000000	0,044200
694,000000	0,043100
693,000000	0,039100
692,000000	0,033500
691,000000	0,028700
690,000000	0,026400
689,000000	0,023300
688,000000	0,018600
687,000000	0,015600
686,000000	0,014200
685,000000	0,014300
684,000000	0,013000
683,000000	0,011500
682,000000	0,009900
681,000000	0,009300
680,000000	0,009600
679,000000	0,012000
678,000000	0,011500
677,000000	0,010600
676,000000	0,010600
675,000000	0,010500
674,000000	0,010400
673,000000	0,013500
672,000000	0,014700
671,000000	0,013200
670,000000	0,013200
669,000000	0,015100
668,000000	0,016400
667,000000	0,019600
666,000000	0,021700
665,000000	0,022200
664,000000	0,023400
663,000000	0,027900
662,000000	0,031700
661,000000	0,034600
660,000000	0,038300
659,000000	0,040900
658,000000	0,041300
657,000000	0,042400
656,000000	0,045700
655,000000	0,049800
654,000000	0,050200
653,000000	0,048800
652,000000	0,049800
651,000000	0,052400
650,000000	0,054800
649,000000	0,058700
648,000000	0,061600
647,000000	0,062700
646,000000	0,065500
645,000000	0,069100
644,000000	0,073500
643,000000	0,079500
642,000000	0,083700
641,000000	0,084400
640,000000	0,085800
639,000000	0,089900
638,000000	0,093200
637,000000	0,094000
636,000000	0,095300
635,000000	0,095900
634,000000	0,095800
633,000000	0,097300
632,000000	0,099800
631,000000	0,100000
630,000000	0,099100
629,000000	0,099000
628,000000	0,099300
627,000000	0,100300
626,000000	0,104400
625,000000	0,106400
624,000000	0,105300
623,000000	0,103800
622,000000	0,104800
621,000000	0,106900
620,000000	0,109300
619,000000	0,112100
618,000000	0,114200
617,000000	0,113200
616,000000	0,112800
615,000000	0,115800
614,000000	0,118400
613,000000	0,120000
612,000000	0,122400
611,000000	0,123600
610,000000	0,123900
609,000000	0,127400
608,000000	0,130700
607,000000	0,131500
606,000000	0,132700
605,000000	0,133700
604,000000	0,133500
603,000000	0,135300
602,000000	0,138200
601,000000	0,139800
600,000000	0,141000
599,000000	0,140700
598,000000	0,140500
597,000000	0,143400
596,000000	0,144200
595,000000	0,145400
594,000000	0,147200
593,000000	0,146900
592,000000	0,145900
591,000000	0,148300
590,000000	0,149400
589,000000	0,150200
588,000000	0,152400
587,000000	0,152200
586,000000	0,150400
585,000000	0,155100
584,000000	0,155500
583,000000	0,155700
582,000000	0,157600
581,000000	0,158500
580,000000	0,157200
579,000000	0,159600
578,000000	0,160000
577,000000	0,161200
576,000000	0,162700
575,000000	0,164500
574,000000	0,162800
573,000000	0,163600
572,000000	0,165100
571,000000	0,167700
570,000000	0,167700
569,000000	0,166400
568,000000	0,164100
567,000000	0,166600
566,000000	0,165300
565,000000	0,164300
564,000000	0,164200
563,000000	0,162600
562,000000	0,156200
561,000000	0,150400
560,000000	0,152700
559,000000	0,151000
558,000000	0,154200
557,000000	0,154100
556,000000	0,155100
555,000000	0,154800
554,000000	0,156000
553,000000	0,152600
552,000000	0,154400
551,000000	0,153800
550,000000	0,153900
549,000000	0,154000
548,000000	0,153200
547,000000	0,149700
546,000000	0,152300
545,000000	0,149700
544,000000	0,148500
543,000000	0,148600
542,000000	0,148800
541,000000	0,142400
540,000000	0,144300
539,000000	0,142500
538,000000	0,140800
537,000000	0,140600
536,000000	0,139000
535,000000	0,133300
534,000000	0,134600
533,000000	0,131500
532,000000	0,130800
531,000000	0,126700
530,000000	0,124700
529,000000	0,119200
528,000000	0,119000
527,000000	0,114200
526,000000	0,112500
525,000000	0,109700
524,000000	0,105500
523,000000	0,098500
522,000000	0,098800
521,000000	0,092800
520,000000	0,088500
519,000000	0,085200
518,000000	0,081300
517,000000	0,072400
516,000000	0,074600
515,000000	0,068200
514,000000	0,063000
513,000000	0,059700
512,000000	0,058000
511,000000	0,049600
510,000000	0,048700
509,000000	0,044200
508,000000	0,041800
507,000000	0,038900
506,000000	0,035400
505,000000	0,034200
504,000000	0,029300
503,000000	0,026200
502,000000	0,026500
501,000000	0,023800
500,000000	0,021200
499,000000	0,019800
498,000000	0,020800
497,000000	0,015500
496,000000	0,017300
495,000000	0,016800
494,000000	0,014800
493,000000	0,013700
492,000000	0,013600
491,000000	0,013200
490,000000	0,013200
489,000000	0,013000
488,000000	0,013300
487,000000	0,011800
486,000000	0,011700
485,000000	0,012800
484,000000	0,012100
483,000000	0,012800
482,000000	0,013700
481,000000	0,016500
480,000000	0,011700
479,000000	0,011400
478,000000	0,014600
477,000000	0,013700
476,000000	0,011900
475,000000	0,013400
474,000000	0,012200
473,000000	0,009400
472,000000	0,012800
471,000000	0,013100
470,000000	0,011000
469,000000	0,011800
468,000000	0,010700
467,000000	0,008400
466,000000	0,011300
465,000000	0,012100
464,000000	0,011300
463,000000	0,011400
462,000000	0,008600
461,000000	0,008100
460,000000	0,010000
459,000000	0,008900
458,000000	0,009100
457,000000	0,008000
456,000000	0,006200
455,000000	0,005100
454,000000	0,008400
453,000000	0,006800
452,000000	0,004600
451,000000	0,006900
450,000000	0,003600
449,000000	0,002600
448,000000	0,004000
447,000000	0,003200
446,000000	0,002600
445,000000	0,002600
444,000000	0,001200
443,000000	-0,001000
442,000000	0,000900
441,000000	0,002700
440,000000	0,000900
439,000000	0,000700
438,000000	0,000100
437,000000	-0,001000
436,000000	0,001500
435,000000	0,001500
434,000000	0,000300
433,000000	-0,001000
432,000000	-0,000700
431,000000	0,000600
430,000000	0,002700
429,000000	-0,000200
428,000000	0,001200
427,000000	0,002200
426,000000	-0,000200
425,000000	-0,001600
424,000000	0,003200
423,000000	0,003300
422,000000	0,000900
421,000000	-0,000200
420,000000	-0,000000
419,000000	0,000100
418,000000	0,002400
417,000000	0,002400
416,000000	0,000700
415,000000	0,000200
414,000000	0,001200
413,000000	0,000800
412,000000	0,001300
411,000000	0,002900
410,000000	0,002600
409,000000	0,000700
408,000000	0,000500
407,000000	0,001900
406,000000	0,003200
405,000000	0,003000
404,000000	0,002400
403,000000	0,002300
402,000000	0,001500
401,000000	0,001600
400,000000	0,004800
399,000000	0,003900
398,000000	0,003200
397,000000	0,003300
396,000000	0,001500
395,000000	0,000800
394,000000	0,003000
393,000000	0,003100
392,000000	0,002400
391,000000	0,002400
390,000000	0,001500
389,000000	0,000800
388,000000	0,001900
387,000000	0,001400
386,000000	0,001600
385,000000	0,000300
384,000000	-0,000200
383,000000	0,002200
382,000000	0,002900
381,000000	0,001900
380,000000	0,001600
379,000000	0,000600
378,000000	-0,001500
377,000000	-0,003700
376,000000	-0,004000
375,000000	-0,003800
374,000000	-0,003600
373,000000	-0,001000
372,000000	0,000500
371,000000	-0,001400
370,000000	-0,004000
369,000000	-0,003200
368,000000	-0,001200
367,000000	-0,000600
366,000000	-0,000800
365,000000	-0,002100
364,000000	-0,004800
363,000000	-0,003900
362,000000	-0,002300
361,000000	-0,000800
360,000000	-0,000700
359,000000	-0,002800
358,000000	-0,004800
357,000000	-0,004700
356,000000	-0,003300
355,000000	-0,000700
354,000000	-0,000800
353,000000	-0,004000
352,000000	-0,004800
351,000000	-0,003500
350,000000	-0,003900
